CTI3   

DESCRIPTOR "Argyll Calibration Target chart information 3"
ORIGINATOR "Argyll dispread"
CREATED "Mon Jun 13 22:22:20 2022"
DEVICE_CLASS "DISPLAY"
COLOR_REP "RGB_XYZ"
TARGET_INSTRUMENT "X-Rite i1 DisplayPro, ColorMunki Display"
DISPLAY_TYPE_REFRESH "NO"
DISPLAY_TYPE_BASE_ID "1"
INSTRUMENT_TYPE_SPECTRAL "NO"
LUMINANCE_XYZ_CDM2 "78.314578 82.447106 89.696845"
NORMALIZED_TO_Y_100 "YES"
VIDEO_LUT_CALIBRATION_POSSIBLE "YES"

NUMBER_OF_FIELDS 7
BEGIN_DATA_FORMAT
SAMPLE_ID RGB_R RGB_G RGB_B XYZ_X XYZ_Y XYZ_Z 
END_DATA_FORMAT

NUMBER_OF_SETS 836
BEGIN_DATA
1 100.0000 100.0000 100.0000 94.98766 100.0000 108.7932 
2 39.60025 0.00000 0.00000 4.067121 2.479846 1.053857 
3 51.23213 0.00000 0.00000 7.043605 4.135279 1.343484 
4 59.22988 19.30410 31.34008 12.49770 8.207088 7.632191 
5 0.00000 86.90899 20.26359 24.57307 42.05612 11.76866 
6 13.46706 88.08354 22.36019 26.02838 44.16915 12.77557 
7 17.30515 100.0000 31.78814 36.09462 59.91022 18.50625 
8 0.00000 0.00000 71.98058 7.200457 5.516340 33.58279 
9 16.81811 0.00000 82.98448 11.51707 8.820657 52.11804 
10 18.32074 17.01863 100.0000 20.59922 17.81668 91.36590 
11 51.26895 19.59589 100.0000 27.87198 22.30857 93.16563 
12 53.46364 35.70716 100.0000 31.32574 27.32079 94.31514 
13 66.49950 44.72248 100.0000 39.77735 34.71985 96.13557 
14 88.33274 100.0000 100.0000 85.13705 94.63186 108.1175 
15 75.72254 0.00000 0.00000 17.02568 9.666129 2.216711 
16 82.70985 0.00000 16.16562 21.29446 12.06113 3.640561 
17 89.34815 10.59635 25.96354 27.45457 15.76402 6.483668 
18 100.0000 13.56827 29.08798 37.65484 21.59463 8.596624 
19 100.0000 0.00000 12.96134 34.94510 19.55490 3.983461 
20 100.0000 0.00000 25.12398 35.49476 19.96646 6.723082 
21 100.0000 0.00000 37.57789 36.59541 20.78055 12.15300 
22 100.0000 11.92838 46.13284 39.34281 22.79469 18.24263 
23 100.0000 0.00000 49.48357 38.24557 22.01873 20.39851 
24 100.0000 0.00000 62.16930 40.73726 23.91088 32.68614 
25 100.0000 13.03572 65.23003 43.23046 25.75403 35.87560 
26 100.0000 27.04558 75.05191 48.42881 30.94361 49.46070 
27 47.18709 68.58071 88.56511 35.29246 40.62972 72.23566 
28 49.64192 83.41522 100.0000 51.58650 63.06832 102.3853 
29 12.65826 13.07018 20.21387 1.377853 1.376085 2.590767 
30 24.12105 15.93196 29.06903 3.146080 2.685298 5.471171 
31 56.34936 50.78912 77.37506 26.95688 25.79814 51.08003 
32 67.23541 64.46371 81.46435 38.63061 38.80219 60.32967 
33 84.39015 100.0000 83.63850 74.11352 84.66088 73.35065 
34 83.34103 18.38844 0.00000 24.19684 14.29408 2.948141 
35 85.53729 48.55999 31.36508 33.68254 26.33302 11.32778 
36 100.0000 75.97514 69.34435 65.33605 59.91802 48.97159 
37 100.0000 88.16955 72.07236 74.29230 74.24732 55.10872 
38 33.73300 46.19677 12.01769 8.588093 11.06598 3.675597 
39 34.09378 61.36455 34.05495 15.09976 21.17901 11.67361 
40 46.22300 65.98225 48.06293 22.50067 28.45831 21.34169 
41 48.41618 77.13905 53.79299 30.12795 39.82935 28.45436 
42 74.27290 74.80885 64.90496 43.82802 46.74711 40.89482 
43 83.81905 74.96399 71.78588 51.86749 51.72830 50.30343 
44 10.16290 52.34590 10.63778 7.074780 11.94942 3.781882 
45 15.42191 57.75234 32.42043 10.95928 17.40008 9.910362 
46 74.54351 94.04903 39.59229 52.43526 64.71023 23.73028 
47 50.92142 100.0000 0.00000 40.83419 60.12718 13.55359 
48 52.78558 100.0000 18.78953 43.39361 63.17219 15.59166 
49 61.13795 100.0000 36.53564 48.98900 67.30308 22.23883 
50 75.65487 65.93456 25.08945 33.10464 33.25150 10.80652 
51 77.26992 74.92251 46.54489 41.60059 44.36822 23.85438 
52 76.18808 100.0000 100.0000 76.95458 90.10109 107.4418 
53 0.00000 0.00000 58.12631 4.460503 3.435028 20.22483 
54 16.76053 0.00000 65.77843 6.802744 5.107947 29.26226 
55 50.56612 0.00000 67.02538 13.44248 8.971537 33.71776 
56 67.10130 33.89736 67.54001 24.32306 18.34328 37.11098 
57 89.92376 49.48012 67.94767 43.42736 33.72417 41.53856 
58 90.97280 61.02353 78.38309 52.04362 44.29297 57.62963 
59 100.0000 84.69534 85.44626 76.35551 74.01816 75.26164 
60 50.89880 45.65960 0.00000 12.68041 12.64254 3.372841 
61 68.11784 56.58264 0.00000 23.48770 22.25854 5.321150 
62 84.87260 66.79420 0.00000 37.46973 34.62890 7.644639 
63 85.45413 73.30975 34.16682 44.50856 44.16910 16.36035 
64 39.04833 31.63763 31.31424 7.830669 7.453530 7.538501 
65 56.03732 31.90629 57.75326 16.75550 13.21253 25.58197 
66 74.44068 34.57700 58.47445 26.67443 19.35285 27.96659 
67 86.50602 35.47889 49.37512 32.89443 22.58887 20.87651 
68 100.0000 70.14006 55.25882 58.36187 51.13999 32.00204 
69 39.69235 54.21608 0.00000 11.48621 14.73251 4.008317 
70 39.71916 58.22579 16.82288 13.76704 18.46056 6.030591 
71 54.48774 70.75773 30.55848 25.48338 31.97019 12.69490 
72 58.71336 73.08348 16.00871 26.93984 33.21125 9.099528 
73 66.49591 86.08630 14.63228 38.41405 48.17841 11.88607 
74 62.72091 100.0000 0.00000 45.92156 63.01272 14.00466 
75 67.68572 100.0000 14.98621 49.93458 66.48041 15.49285 
76 0.00000 100.0000 25.62919 34.66335 58.73664 16.02232 
77 0.00000 100.0000 38.02026 36.06931 60.13400 20.49927 
78 0.00000 100.0000 75.94552 43.20196 66.31265 51.59346 
79 0.00000 100.0000 87.84604 47.19408 69.72557 69.52980 
80 37.11003 100.0000 86.73327 52.10418 72.75168 74.46375 
81 63.49847 100.0000 100.0000 69.51657 85.99360 106.7665 
82 0.00000 14.68076 63.37174 5.668182 4.722123 24.49374 
83 17.24656 33.72193 64.64874 9.361210 9.749852 29.45255 
84 20.05510 43.47235 81.38039 16.32697 17.37590 52.39695 
85 25.31735 59.98208 86.35683 24.70116 29.47482 63.66983 
86 72.94196 0.00000 54.44580 19.80562 11.98555 22.33880 
87 82.90934 0.00000 68.66359 28.28205 17.30779 37.92574 
88 85.05265 33.46712 78.52929 38.25622 26.69668 53.50152 
89 84.45809 35.81130 100.0000 47.71844 36.43558 96.11504 
90 28.75042 28.45392 42.81728 6.439438 6.349676 12.46063 
91 36.41243 29.13117 54.36619 9.710839 8.533984 21.05760 
92 78.35240 15.83880 14.40839 20.70175 12.21215 3.423645 
93 86.94392 23.38573 15.24379 27.59898 16.86666 4.335058 
94 100.0000 35.50364 25.35955 41.52792 26.79207 8.324415 
95 73.98115 32.32891 0.00000 20.67130 14.11648 3.214539 
96 72.64776 49.85877 12.40381 24.24303 20.89517 5.431487 
97 82.21272 56.43318 18.85218 32.90364 28.36150 7.850409 
98 81.65949 56.86986 40.99098 34.98876 30.55635 17.26731 
99 26.00899 25.19997 0.00000 3.149596 3.366404 1.343735 
100 42.49659 30.48608 0.00000 7.074945 6.288171 1.941765 
101 58.19295 30.34185 0.00000 12.16977 9.093301 2.412338 
102 62.55268 41.98756 43.91662 19.70145 16.84960 15.68590 
103 61.72667 82.56300 57.92722 39.94768 49.45370 34.52038 
104 65.59553 88.24871 72.87807 50.02760 60.96780 53.30712 
105 67.03653 42.99951 0.00000 18.85859 15.50828 3.759196 
106 82.07782 50.94878 0.00000 29.56180 23.62456 5.211170 
107 100.0000 59.86939 0.00000 47.29426 36.84022 7.212069 
108 20.44230 44.53381 58.51505 10.97839 13.39180 25.05007 
109 23.12720 78.71220 71.02063 28.93348 41.43246 44.02102 
110 40.71736 84.86659 84.65692 41.32116 54.35045 67.62628 
111 6.892000 28.87877 89.81449 15.12735 13.71700 63.34795 
112 17.02608 32.46044 100.0000 22.45361 21.29890 92.06085 
113 26.49390 46.56775 100.0000 27.32748 28.40227 94.34290 
114 33.01190 59.06240 100.0000 33.02863 37.10001 96.41145 
115 85.34946 68.01783 100.0000 61.14055 57.52396 100.9482 
116 33.29984 13.73491 65.53381 9.458912 7.011512 30.52464 
117 33.16889 37.94790 87.12711 19.56313 18.44076 63.59425 
118 19.83291 19.14958 82.49872 12.52581 10.25092 52.35033 
119 42.51813 18.30156 85.15475 17.74626 13.46127 59.52501 
120 0.00000 0.00000 35.00399 1.624964 1.328632 6.324104 
121 0.00000 0.00000 46.60894 2.794606 2.192837 12.05846 
122 0.00000 0.00000 100.0000 19.01118 15.95267 89.33996 
123 0.00000 14.30480 100.0000 19.38376 16.59837 89.56811 
124 83.60841 17.63563 100.0000 43.45810 30.76829 94.73926 
125 28.83372 68.51270 0.00000 14.69639 22.93672 5.989781 
126 43.78753 70.22084 0.00000 18.68855 25.78797 6.545216 
127 68.29998 71.63987 0.00000 29.84506 32.94549 7.788700 
128 86.70879 77.03611 13.07096 44.72455 44.96851 10.46833 
129 0.00000 100.0000 51.43547 37.91475 61.84518 28.09952 
130 0.00000 100.0000 63.45529 39.99378 63.61723 37.10100 
131 17.15728 100.0000 64.85883 41.52736 64.72180 41.08000 
132 0.00000 76.57760 54.97787 22.19177 35.13998 24.95653 
133 13.36635 78.01031 60.75120 24.81456 37.94830 31.69359 
134 36.72225 80.93584 61.10711 30.40915 42.98608 35.08752 
135 49.36478 87.86501 74.94998 42.96265 56.64463 54.42058 
136 100.0000 46.91551 0.00000 42.97303 29.73399 5.558952 
137 100.0000 73.82830 0.00000 53.30330 46.91048 9.504823 
138 100.0000 82.65319 17.53441 59.93758 57.71295 13.16546 
139 32.47542 0.00000 73.47048 10.97032 7.936060 40.75644 
140 32.96186 0.00000 87.76967 15.53699 11.66455 62.65558 
141 0.00000 58.69114 0.00000 8.454881 14.67301 4.109884 
142 0.00000 73.43892 0.00000 14.39090 25.03827 6.511617 
143 16.26577 75.77015 12.31725 17.03658 28.98861 7.871359 
144 19.34610 95.15631 74.12665 40.81019 61.40153 51.33624 
145 17.72841 100.0000 82.67740 46.77833 69.09929 64.59702 
146 100.0000 0.00000 0.00000 34.68373 19.40118 3.358632 
147 100.0000 15.25927 0.00000 36.84515 20.99963 3.588533 
148 100.0000 100.0000 12.77605 72.74474 78.75797 16.49312 
149 100.0000 100.0000 25.99514 74.30218 80.67693 19.69579 
150 100.0000 100.0000 39.00696 75.92017 82.27523 25.60329 
151 11.64634 46.81457 100.0000 25.61061 27.17693 93.21945 
152 17.46290 60.32972 100.0000 31.16026 36.53694 95.74271 
153 0.00000 13.63272 31.78752 1.721530 1.709463 5.473646 
154 15.64724 18.05992 41.67025 3.441230 3.197170 10.41136 
155 15.88626 18.60571 58.61824 5.989633 5.147646 22.60537 
156 33.08727 29.30574 70.90423 12.46845 10.93833 37.82655 
157 51.87441 34.42160 80.37457 21.58818 17.90667 53.94625 
158 62.66517 42.76003 89.46326 31.66029 26.82224 71.45629 
159 100.0000 47.73994 35.34141 45.75767 32.88977 13.66936 
160 100.0000 61.48909 39.14058 51.27742 41.68047 17.70985 
161 100.0000 62.96474 67.77765 58.00716 48.07846 44.70513 
162 22.41416 84.30502 15.05054 23.11280 38.55016 10.27874 
163 25.48234 92.51702 23.52421 30.72045 50.50926 14.30351 
164 18.49407 84.51092 0.00000 21.77905 36.79616 9.071314 
165 37.26505 84.42178 0.00000 24.44035 37.90935 9.263272 
166 55.17329 86.35178 9.315094 32.42847 44.26406 10.71721 
167 46.77176 0.00000 48.60097 8.788003 5.679274 16.41207 
168 64.61241 0.00000 85.80290 24.21679 16.38897 62.21055 
169 100.0000 35.79719 86.82542 54.28955 37.10529 68.98154 
170 100.0000 100.0000 100.0000 95.02902 100.0902 108.7938 
171 34.34916 0.00000 58.40938 7.843550 5.455248 23.86278 
172 49.11542 0.00000 81.88925 17.27579 12.11414 54.13792 
173 60.82752 20.44088 81.95037 23.27231 16.50639 55.71848 
174 0.00000 0.00000 22.54997 0.910177 0.796980 2.801358 
175 0.00000 14.93718 84.30231 11.05944 8.974402 50.55315 
176 0.00000 38.48700 84.76511 14.49917 14.91442 52.83127 
177 14.99034 24.67029 30.44088 2.998225 3.528890 5.802384 
178 19.08052 42.16557 33.38938 6.750983 9.466688 8.362453 
179 32.92956 45.84548 43.19587 10.87746 13.19814 14.29828 
180 44.40247 59.35368 57.11846 20.54317 24.38305 27.38259 
181 88.23262 0.00000 0.00000 24.79281 13.95934 2.787827 
182 100.0000 19.52784 15.31497 37.84002 22.03265 4.757652 
183 0.00000 61.18269 17.09986 10.25101 17.59496 5.793328 
184 0.00000 73.61788 28.04295 17.06856 28.94862 10.70207 
185 14.32593 34.36936 0.00000 3.149317 4.798977 1.730799 
186 31.92997 38.52218 0.00000 5.922551 7.149999 2.240549 
187 48.46209 44.14088 16.41574 12.17419 12.61793 4.537759 
188 58.69833 55.87186 20.54185 19.88495 21.07487 7.156112 
189 64.22686 81.25523 34.12466 36.56674 45.18663 16.97777 
190 0.00000 100.0000 100.0000 54.70134 77.25863 102.4983 
191 13.31213 100.0000 100.0000 55.41882 77.80117 103.8442 
192 51.65206 100.0000 100.0000 64.11894 82.93513 106.0914 
193 0.00000 0.00000 86.07768 11.20789 8.706761 53.01461 
194 13.73917 0.00000 100.0000 19.58629 16.51793 90.68671 
195 27.86799 0.00000 100.0000 21.08941 17.45582 91.58450 
196 36.04760 14.63226 100.0000 23.15012 19.13924 92.26240 
197 82.75928 51.75202 100.0000 51.70309 44.29415 97.95978 
198 100.0000 62.06723 100.0000 69.92944 59.19199 100.6994 
199 0.00000 13.25978 0.00000 0.729437 0.937254 0.782626 
200 0.00000 16.56132 15.93866 1.113880 1.428859 1.798284 
201 0.00000 19.08297 45.32613 3.326611 3.307066 11.61040 
202 11.95633 30.53426 51.55691 5.951811 6.628141 17.32796 
203 10.11717 54.39444 84.73442 19.85939 23.82717 56.91971 
204 30.17553 74.26940 100.0000 40.26022 50.11982 99.40797 
205 35.10017 87.47520 100.0000 50.04920 65.41224 102.6373 
206 0.00000 68.59460 42.46298 16.22482 26.32167 15.84326 
207 0.00000 88.54075 54.54183 29.76917 48.03651 27.25294 
208 35.92781 100.0000 58.72912 43.70469 65.59234 36.92133 
209 47.25901 100.0000 66.88481 49.07276 69.19407 46.66367 
210 100.0000 100.0000 76.21651 84.54543 89.56797 63.48933 
211 100.0000 100.0000 88.23162 88.88298 93.50489 83.22118 
212 0.00000 0.00000 0.00000 0.467979 0.470330 0.667378 
213 0.00000 100.0000 0.00000 32.30897 55.33364 12.69423 
214 13.25232 100.0000 0.00000 32.69114 55.54565 12.74045 
215 26.35892 100.0000 0.00000 34.14658 56.44319 12.90619 
216 37.84788 100.0000 15.28843 38.05337 59.87053 14.41333 
217 83.33075 83.20448 0.00000 45.05348 48.37082 10.74485 
218 100.0000 87.11890 0.00000 61.45909 60.57390 12.44153 
219 100.0000 87.41775 35.64511 65.96089 66.46530 21.38919 
220 0.00000 100.0000 12.97366 33.39727 56.95351 13.46694 
221 18.25722 100.0000 15.79657 34.52006 57.92259 14.07384 
222 32.26536 100.0000 29.88943 38.17121 60.99698 18.16337 
223 47.02167 100.0000 32.35213 42.63984 63.65699 19.64500 
224 83.09754 21.98039 57.15719 29.22892 18.55149 26.23333 
225 100.0000 38.71015 60.14152 47.19964 31.78768 32.34382 
226 62.60084 0.00000 14.77228 11.21848 6.491509 2.638950 
227 69.52708 0.00000 26.33339 14.55952 8.446816 5.631263 
228 80.67027 23.41040 25.77600 23.91216 14.96954 6.565909 
229 82.93123 34.17888 38.44137 28.35719 19.53113 12.98793 
230 46.62696 14.21053 14.20462 6.605592 4.299172 2.111679 
231 64.67254 21.02926 16.09213 14.23361 9.159896 3.355726 
232 63.71593 90.15166 43.81891 43.59726 56.68748 24.45942 
233 72.11886 100.0000 71.81606 62.51116 77.06128 54.96313 
234 0.00000 85.31656 38.49415 25.25467 42.21745 17.22507 
235 29.32492 85.04493 37.83544 27.40544 42.95243 17.98884 
236 18.75546 83.69498 45.17352 26.10698 41.84226 21.61412 
237 39.71451 100.0000 44.83130 42.08611 63.95133 26.34737 
238 53.46206 100.0000 50.22947 47.77344 67.43834 30.92278 
239 61.29149 36.70163 12.07622 14.94159 11.97456 3.568577 
240 70.59899 44.09408 33.41001 22.95681 18.94737 10.58344 
241 77.03252 50.01429 80.01035 38.05064 31.98942 57.13461 
242 56.59801 0.00000 100.0000 27.83748 21.33711 92.93304 
243 65.88235 14.22587 100.0000 32.89043 24.64395 93.61195 
244 68.82295 30.08031 100.0000 37.03355 29.15945 94.75390 
245 32.33635 69.52512 64.97723 23.89772 32.31947 36.46853 
246 61.06984 100.0000 64.51991 54.24933 71.89460 44.90681 
247 84.38367 100.0000 66.36802 68.76059 80.08653 48.91268 
248 0.00000 86.28806 0.00000 21.65121 37.63657 9.253901 
249 39.06448 100.0000 0.00000 36.92118 57.96733 13.17930 
250 75.44238 100.0000 0.00000 52.87747 66.72724 14.55278 
251 84.80219 100.0000 18.22610 60.98700 72.76833 16.82137 
252 80.66900 86.99690 27.79472 49.27966 56.47887 16.64854 
253 83.99580 88.31019 49.15016 55.46684 62.21275 29.11633 
254 13.49141 54.24358 0.00000 7.440394 12.48035 3.589165 
255 19.62993 63.97199 14.86388 12.23453 20.06781 6.193682 
256 24.79450 73.26767 37.43308 19.62305 30.61173 15.25973 
257 0.00000 57.62416 31.51175 10.32612 16.97876 9.171633 
258 0.00000 57.73029 65.05709 15.12239 21.06886 30.17532 
259 16.13038 62.85113 65.97015 18.29923 25.40922 34.06133 
260 14.51731 72.93889 100.0000 37.25428 47.38745 98.05281 
261 0.00000 27.76291 100.0000 20.85785 19.26613 90.25747 
262 0.00000 40.36481 100.0000 23.36280 23.70507 91.40614 
263 0.00000 52.79651 100.0000 27.16130 30.46153 93.01781 
264 0.00000 64.05806 100.0000 31.84905 38.65321 94.86236 
265 0.00000 87.85105 100.0000 45.93971 62.89535 99.94480 
266 26.39815 100.0000 100.0000 57.15627 78.97505 104.7431 
267 39.62078 100.0000 100.0000 60.09994 80.68272 105.4172 
268 36.32667 33.84852 20.10447 6.869176 7.094138 4.025412 
269 45.45748 44.15223 31.92488 12.29148 13.15538 8.926214 
270 66.51915 65.73880 36.83116 29.46065 31.81694 15.32554 
271 88.62107 66.03864 57.66535 46.90209 42.55314 32.40785 
272 71.94324 0.00000 100.0000 34.24851 24.90164 93.83217 
273 85.80314 0.00000 100.0000 42.32068 29.39191 94.50803 
274 100.0000 0.00000 100.0000 54.05322 35.95987 95.40999 
275 100.0000 12.35580 100.0000 55.79726 37.25903 95.63779 
276 52.43716 81.59915 0.00000 27.88625 38.05454 9.181420 
277 66.08243 86.92823 0.00000 37.86401 47.58984 10.99537 
278 26.08374 50.66313 0.00000 7.883582 11.56679 3.335064 
279 27.88913 51.33911 23.54339 9.513389 13.68085 6.303870 
280 55.29276 57.12973 40.22718 20.98392 23.07165 15.42052 
281 57.05378 71.07941 100.0000 46.71954 51.69355 100.0650 
282 71.58764 74.13374 100.0000 55.97758 58.95475 101.6565 
283 0.00000 26.52956 0.00000 1.752058 2.771606 1.236701 
284 0.00000 43.33748 0.00000 4.384013 7.470238 2.384933 
285 0.00000 48.40964 13.26211 6.061685 10.32871 3.613344 
286 0.00000 70.00161 72.91768 22.57963 32.24680 41.22630 
287 0.00000 83.04072 84.73785 33.68728 48.32548 60.21326 
288 25.31275 90.33600 91.32336 44.42149 61.40218 80.44614 
289 55.91010 62.85146 0.00000 19.74475 22.85804 5.721738 
290 87.83837 100.0000 0.00000 61.40746 71.46873 15.11438 
291 100.0000 100.0000 0.00000 71.74186 77.17768 15.60516 
292 43.97591 15.17106 39.06744 7.651329 5.288281 10.30563 
293 53.64583 14.07486 50.92454 12.14671 8.031070 18.78449 
294 65.97239 15.32140 63.01021 19.73557 12.80099 30.91778 
295 42.36621 0.00000 32.20316 5.818122 3.667049 6.680659 
296 71.61582 0.00000 40.50770 17.10854 10.10352 12.23183 
297 79.31824 19.07655 40.66636 23.54529 14.52055 13.20637 
298 100.0000 38.12990 46.16050 44.57779 29.70474 19.78201 
299 100.0000 53.60079 52.04029 50.36693 38.42585 26.04974 
300 63.28228 0.00000 0.00000 11.07354 6.371449 1.716006 
301 65.64566 15.37070 0.00000 13.45403 8.114043 2.044219 
302 87.32463 36.98225 0.00000 29.66163 19.89621 4.091364 
303 100.0000 51.88718 20.04915 45.70450 33.76307 8.512414 
304 42.82173 0.00000 100.0000 23.94673 19.13178 92.25874 
305 42.67225 69.20694 100.0000 40.52218 47.09870 98.93164 
306 0.00000 34.36456 69.13414 9.245499 9.929947 31.22540 
307 16.44087 46.30047 72.10290 14.08754 16.45496 39.14358 
308 0.00000 51.89150 75.55073 15.66873 19.49999 41.31383 
309 33.29994 60.29047 76.16881 22.98516 27.57385 48.87341 
310 60.54806 36.70519 30.73560 15.76218 12.86785 8.181866 
311 71.60900 100.0000 29.11160 53.89933 69.72786 19.82189 
312 83.60279 100.0000 37.41158 62.67237 75.03701 24.19684 
313 100.0000 100.0000 50.99960 78.20885 84.26872 34.68298 
314 100.0000 100.0000 63.74805 81.07797 86.66987 47.34761 
315 100.0000 30.95596 0.00000 39.44703 24.14955 4.254964 
316 100.0000 39.30669 12.04695 41.46503 27.21830 5.522276 
317 100.0000 37.10525 100.0000 60.93308 44.13156 97.24445 
318 100.0000 49.18696 100.0000 64.55920 50.01589 98.62504 
319 30.79928 0.00000 42.76197 4.739592 3.260407 11.71275 
320 30.40956 12.12202 52.51563 6.488751 4.788264 18.62484 
321 0.00000 28.16263 30.54523 3.004097 4.111836 5.613070 
322 0.00000 35.70465 47.75927 5.869793 7.571873 13.92136 
323 17.94605 69.73810 81.11057 26.11026 34.78167 55.42122 
324 30.95855 69.36922 81.70070 28.37920 36.18890 57.88809 
325 21.70922 16.18716 17.77121 2.107690 1.970073 2.191553 
326 47.00695 24.01655 19.89020 8.124309 6.162084 3.731246 
327 72.08975 30.60291 35.49896 21.11610 14.68247 10.84084 
328 72.26817 32.58699 89.61428 34.24570 25.54908 72.10534 
329 34.58316 40.46558 54.50816 11.56662 12.27988 21.92742 
330 41.60980 42.81108 67.33388 16.63681 16.42344 36.00162 
331 42.17973 50.27743 86.60907 25.03293 25.37688 64.97592 
332 51.80703 54.96156 100.0000 36.52370 37.01753 96.61896 
333 68.20700 59.46731 100.0000 46.40910 44.94299 98.43762 
334 0.00000 84.64064 69.59266 30.39952 46.45016 40.12173 
335 15.43547 86.11541 74.79978 33.75153 49.83310 49.92027 
336 100.0000 64.77507 14.03232 49.89459 41.12282 8.939891 
337 100.0000 70.00104 29.04482 54.16372 47.46937 14.51504 
338 100.0000 80.37766 46.48938 62.73245 59.80905 26.56960 
339 49.41061 0.00000 19.53229 6.846081 4.099304 3.078087 
340 57.39567 0.00000 34.67754 10.35288 6.234080 8.365763 
341 59.24997 0.00000 54.03624 13.67930 8.581472 21.47387 
342 66.52084 0.00000 70.46022 20.43342 13.09560 39.56880 
343 81.90055 0.00000 84.17031 32.56355 20.88754 61.09286 
344 100.0000 16.02096 84.26467 49.40007 30.83545 63.34630 
345 100.0000 69.10670 84.09920 66.16560 57.49540 69.33450 
346 100.0000 75.10245 100.0000 77.14711 71.18888 103.2387 
347 0.00000 41.22772 37.50706 5.915278 8.733103 9.299625 
348 0.00000 52.16652 47.22170 10.04375 14.98851 15.62022 
349 33.68973 100.0000 72.93697 46.86292 68.36977 53.16366 
350 52.84571 100.0000 81.76317 55.61634 74.13391 66.84262 
351 67.24835 100.0000 86.06537 63.93342 79.32322 75.81341 
352 0.00000 32.41340 14.92565 2.745091 4.381830 2.396043 
353 0.00000 44.81686 25.70701 5.786219 9.362229 5.570308 
354 7.806245 49.68744 36.13424 8.298846 12.90934 9.950181 
355 19.61339 58.72041 49.10346 13.66224 19.82466 19.06072 
356 25.67566 67.13047 53.14750 18.92812 27.45374 24.40671 
357 52.57871 73.47158 73.48034 34.29661 41.12640 49.61578 
358 55.29043 86.88130 83.56741 47.69729 59.74961 67.86985 
359 65.45377 86.69676 100.0000 60.52744 70.43805 103.9793 
360 85.07663 0.00000 35.09703 24.05845 13.82305 9.725780 
361 100.0000 24.32638 49.55806 42.05207 25.62705 21.10522 
362 100.0000 25.55669 61.71662 44.54753 27.65509 32.77437 
363 34.41609 0.00000 14.05352 3.317296 2.094550 1.674535 
364 39.41941 16.50027 26.22704 5.647784 4.078563 4.841600 
365 13.24230 0.00000 0.00000 0.758555 0.635162 0.711406 
366 14.52923 0.00000 33.41823 1.955367 1.512511 6.285973 
367 17.40448 0.00000 50.03120 4.110533 3.072252 15.87681 
368 49.15440 45.77677 54.10601 17.08423 17.12265 23.44537 
369 49.99648 50.70371 64.71415 20.89661 21.40322 34.16546 
370 60.26172 53.65648 64.36012 26.25310 25.76430 35.30108 
371 63.56932 66.53253 70.48209 35.07392 37.59107 45.32370 
372 74.01133 81.47585 80.16168 52.78257 57.91873 62.90141 
373 100.0000 0.00000 75.28509 44.14730 26.59101 49.44108 
374 100.0000 0.00000 87.60739 48.15471 29.93615 68.49698 
375 100.0000 24.69141 100.0000 58.03774 39.83325 96.32286 
376 83.67552 70.40334 83.98852 53.44698 51.28813 67.76808 
377 83.76460 84.77934 100.0000 70.33678 74.51635 104.6436 
378 100.0000 87.81479 100.0000 85.89515 85.51525 106.2401 
379 0.00000 0.00000 11.03211 0.543410 0.529559 1.021242 
380 16.82974 0.00000 15.65777 1.166372 0.902020 1.664113 
381 28.70087 0.00000 26.99043 2.992310 2.024155 4.567615 
382 86.53176 0.00000 53.72959 27.72313 16.37239 23.13204 
383 88.55128 21.16603 68.62486 35.56361 22.45231 39.12836 
384 65.14852 21.20904 47.22111 17.10372 11.33740 16.83512 
385 75.40793 46.22463 53.19154 29.14662 23.93882 24.38498 
386 76.30781 58.57977 53.17788 34.35017 31.63570 26.20328 
387 14.52372 15.18733 0.00000 1.182295 1.292822 0.870198 
388 15.63828 35.47488 18.93848 3.885699 5.681686 3.323442 
389 82.49165 37.98591 17.84304 27.44504 19.43889 5.472267 
390 100.0000 40.47926 73.95097 51.18567 35.36182 49.03970 
391 100.0000 53.86652 83.30616 58.60927 45.29289 64.77842 
392 47.54971 80.98697 18.10801 27.34016 38.94273 10.75023 
393 50.76553 84.57955 30.77445 32.26591 45.28673 15.53194 
394 14.48490 68.82587 0.00000 13.08649 22.27877 5.877850 
395 25.50551 74.08324 25.83099 18.88415 30.28684 10.75036 
396 55.62167 79.41542 45.79178 33.00058 42.62333 22.99647 
397 86.11707 83.80770 67.22883 58.23454 61.47637 46.32908 
398 85.40961 83.85575 81.21610 62.04803 64.87790 65.61041 
399 26.34575 0.00000 0.00000 1.926610 1.288004 0.837488 
400 32.83227 13.43814 0.00000 3.291364 2.370850 1.065535 
401 49.11323 16.80601 0.00000 7.479540 4.916448 1.536300 
402 52.53562 34.27984 45.99432 14.01208 11.79914 15.92212 
403 59.43525 62.58580 52.16495 26.90812 29.54125 24.63357 
404 76.34487 64.71452 67.61372 40.38039 38.87202 42.04685 
405 52.07501 18.77440 66.34159 15.14909 10.70675 33.50649 
406 78.27664 18.72960 81.56630 32.08668 21.18166 56.39264 
407 89.51227 56.09680 88.58128 52.36114 43.61927 73.97765 
408 12.64918 100.0000 47.33497 37.80517 61.63222 26.31265 
409 26.46631 100.0000 48.40190 39.64425 62.80987 27.68196 
410 70.59316 100.0000 50.91005 56.41176 72.28829 32.62562 
411 39.51686 74.46466 29.44877 22.45914 32.81557 12.62972 
412 41.72068 82.21072 45.28450 29.66046 42.78436 22.48483 
413 0.00000 45.20861 61.40517 10.13387 12.93148 25.33857 
414 0.00000 65.96197 86.09968 24.57491 32.07211 59.21271 
415 0.00000 75.85501 100.0000 38.03960 49.31422 97.17032 
416 17.04524 86.24308 100.0000 45.63010 61.50217 101.0540 
417 9.514637 23.81561 10.26120 1.703063 2.447284 1.442248 
418 32.81193 24.39530 13.65396 4.415778 4.073546 2.141328 
419 34.25066 30.70260 100.0000 24.80432 22.32301 92.95558 
420 74.71352 7.151117 90.59148 31.69895 21.22947 71.85412 
421 83.35317 26.47880 93.17882 41.63858 29.14520 79.72175 
422 90.40086 49.21221 95.93707 54.09112 42.75106 88.74920 
423 59.82794 21.78836 57.10690 16.83987 11.66888 24.57864 
424 60.98759 42.89803 58.66353 21.64066 18.74532 27.76427 
425 66.67506 63.04408 60.38801 32.46939 33.38439 33.03661 
426 40.43150 22.51501 5.699820 5.586063 4.394037 1.583072 
427 42.17398 42.82526 6.523047 9.365845 10.17708 3.009033 
428 44.57254 53.98194 8.082645 13.33589 15.99564 4.442234 
429 46.02596 61.74743 36.10026 18.62159 23.56492 13.17778 
430 64.92156 71.97992 55.19117 35.01453 39.79213 29.92922 
431 73.37830 71.63550 76.65029 44.63896 46.38294 55.44134 
432 6.061097 43.17772 73.16402 12.62573 14.54792 38.47670 
433 20.99764 55.75779 76.52695 19.08997 23.40624 47.28537 
434 57.79402 70.75193 82.48430 38.03852 42.47419 62.60571 
435 64.57694 78.15342 89.70123 48.72267 54.41114 78.57170 
436 90.80612 80.08070 89.91506 66.92168 65.84980 81.28043 
437 85.78829 11.10356 51.79366 28.13141 16.74147 21.32041 
438 95.91129 15.36500 55.54412 37.79959 22.46028 25.54204 
439 65.59626 9.567950 11.22285 12.89279 7.548738 2.329955 
440 75.46157 28.81059 13.54798 20.71626 13.69937 3.792490 
441 89.13102 34.44648 26.18624 31.88193 21.20373 7.934516 
442 93.70490 36.77657 37.86030 37.02349 24.79835 13.70121 
443 40.99879 3.292624 9.808020 4.509728 2.758438 1.386460 
444 52.46253 23.07957 9.383404 9.371065 6.624394 2.148305 
445 58.03639 29.02893 21.58604 12.56292 9.332206 4.695947 
446 76.39263 43.97683 42.75861 27.58893 21.80758 16.21232 
447 32.24546 25.04066 24.04267 4.842885 4.568692 4.279506 
448 40.81024 29.46758 43.24260 9.085851 7.938556 13.11006 
449 19.71216 10.70531 49.26488 4.394060 3.429803 15.57091 
450 21.31192 23.76361 69.53705 9.468260 8.274962 34.72719 
451 21.69278 28.53058 88.88035 16.20838 14.36314 64.24504 
452 26.04051 37.56466 95.02075 21.58930 20.55768 79.06334 
453 88.56985 76.95142 99.78662 68.15779 67.00963 101.8976 
454 7.730723 64.87703 9.196771 11.14860 19.27736 5.375760 
455 32.32248 72.03762 15.12629 18.04221 27.92435 7.980973 
456 70.99992 81.80941 23.99833 39.12904 46.37374 13.51807 
457 10.08645 9.936579 68.92412 7.086835 5.540650 31.64669 
458 21.09281 8.849139 76.92364 10.25934 7.838115 43.55478 
459 32.17523 10.98206 76.37729 12.02826 8.944201 44.94730 
460 53.54960 9.332154 78.40527 18.00824 12.40683 49.43223 
461 59.89715 11.06435 89.91746 24.83360 17.48617 69.83521 
462 60.55175 23.37045 97.68674 30.42707 23.46377 88.01132 
463 0.00000 74.02677 13.67004 16.01835 27.65305 7.681165 
464 8.623796 77.07067 21.08638 18.34642 31.21652 9.675224 
465 19.28950 84.06926 30.56247 24.40906 40.31381 14.31516 
466 40.70890 89.03650 34.98663 32.69351 49.09466 17.99381 
467 0.00000 0.00000 0.00000 0.467644 0.469834 0.666481 
468 0.00000 0.00000 0.00000 0.467597 0.470151 0.666489 
469 28.52856 8.436217 21.04252 2.830134 2.001869 2.947967 
470 79.33675 7.298913 41.17422 21.76852 12.79484 13.15671 
471 88.12642 24.45087 46.62555 31.53705 19.72544 17.90541 
472 83.80375 0.316953 25.91923 22.47606 12.80175 6.041878 
473 90.84486 13.27779 37.24758 30.41263 17.73986 11.79878 
474 92.43169 54.26078 38.67623 41.41921 32.87447 15.75338 
475 78.23808 64.03829 9.245866 32.63487 30.85535 7.268200 
476 88.51245 65.72169 20.10229 41.39919 37.47307 10.08177 
477 91.97338 89.60214 19.20591 58.29901 62.53633 14.95198 
478 92.82009 92.83309 30.09896 62.86012 68.75760 19.57774 
479 14.63559 24.73871 0.436904 1.905811 2.581335 1.184211 
480 33.55015 42.83473 31.37892 8.956180 10.70849 8.304690 
481 47.58165 43.57963 77.80216 21.26952 19.92284 49.48479 
482 63.32746 54.03005 86.53492 34.38791 32.23491 67.45957 
483 52.04604 5.783124 42.19890 9.723099 6.102162 12.63729 
484 70.04742 4.404462 62.55930 20.41490 12.69527 30.36486 
485 70.36635 14.39880 73.12583 24.35787 15.87262 43.40869 
486 70.03496 27.05530 79.91244 28.47923 20.29566 54.16054 
487 11.89847 65.64563 56.06108 17.21555 25.80121 25.08789 
488 39.47073 70.27569 55.75669 23.86739 32.10794 27.70214 
489 67.33162 93.16594 58.12753 50.62046 63.81821 37.42438 
490 11.25544 39.48491 87.42972 16.57846 16.98456 60.23398 
491 17.72042 46.73767 91.37781 20.88590 22.23967 70.79182 
492 15.18301 54.75339 93.01746 24.15481 27.50140 74.85702 
493 0.00000 51.76315 87.86855 19.52298 22.74635 59.82418 
494 17.55086 66.35781 90.31660 28.07493 35.21046 71.09952 
495 11.61302 71.26552 68.27947 22.58616 32.73138 37.61974 
496 39.34019 79.08705 72.75388 33.35168 44.57644 48.97881 
497 7.964982 67.15490 33.98185 14.44120 23.93536 11.71702 
498 11.29448 90.11784 38.60516 28.97892 48.19406 18.86906 
499 25.39700 95.17070 38.59345 34.54058 55.65055 20.79147 
500 9.133845 11.66555 9.632605 0.844865 0.934898 1.043114 
501 35.30577 14.13861 15.60021 4.027297 2.875217 2.102271 
502 39.41467 18.58397 48.56885 8.158526 6.091870 16.38901 
503 41.76918 21.88542 60.89583 11.18304 8.655398 26.75682 
504 45.88966 30.84600 67.94330 15.29444 12.63083 35.88906 
505 45.29984 30.72156 91.54517 22.79071 18.98725 72.54646 
506 9.304597 8.810588 91.44576 14.21549 11.31348 66.24317 
507 8.449454 19.78685 95.13029 16.90423 14.36167 76.11642 
508 26.88622 65.14741 96.13824 32.05890 38.15305 86.11907 
509 26.12876 81.84523 96.78462 41.93171 54.78433 92.04861 
510 10.71643 2.233755 42.75719 2.671838 2.078420 10.60101 
511 23.87970 23.48811 52.30406 6.322546 5.797220 18.10486 
512 29.69829 23.02274 61.25136 8.775855 7.416928 26.49749 
513 29.92967 35.46647 62.37033 10.92365 10.88444 28.64983 
514 10.33786 9.792157 31.29109 1.772234 1.548679 5.675551 
515 27.56227 15.93629 42.02166 4.702214 3.776890 11.33350 
516 41.39294 40.68066 46.18818 11.98812 12.25699 16.40134 
517 75.15633 3.343724 10.06246 16.94363 9.659314 2.540515 
518 88.53435 9.155648 9.176757 26.04217 14.79649 3.143787 
519 97.36649 10.24253 17.55109 33.53049 19.01065 4.694046 
520 100.0000 27.25127 34.52253 40.50313 24.79958 11.41864 
521 11.57849 44.34576 1.323554 4.873805 8.051974 2.524247 
522 7.789741 80.49807 5.434269 18.60462 32.09659 8.131702 
523 23.49919 94.31016 8.455112 29.61948 49.45713 11.81653 
524 9.740509 91.73349 10.16517 26.85434 46.08160 11.25061 
525 33.32596 90.86349 7.623644 28.92661 46.25025 11.13473 
526 44.94167 91.13483 8.747308 32.22530 48.25754 11.53857 
527 57.87513 96.37072 8.244115 41.13955 57.70751 13.28373 
528 8.410217 95.52274 27.97354 31.61011 53.35308 15.82899 
529 13.81675 95.18181 54.85073 35.66703 57.16411 30.61938 
530 27.72202 95.72859 82.71832 45.07626 64.67746 65.23726 
531 20.70794 7.883802 93.81454 16.64391 13.19120 74.31473 
532 50.69157 9.241259 99.80224 26.08603 20.33997 91.58774 
533 43.54056 92.28719 23.11474 34.42761 52.21833 14.67897 
534 59.98618 93.61653 23.41611 41.94986 57.38776 15.62633 
535 62.59970 65.80100 8.560956 24.44237 27.20576 6.809745 
536 74.94998 74.69370 32.37407 38.21832 41.70427 15.39170 
537 77.46155 83.62152 37.89713 46.15287 52.51221 20.40801 
538 21.55940 38.24190 8.240723 4.547057 6.490096 2.308332 
539 27.04234 39.34612 20.42292 6.076095 7.879350 4.230049 
540 92.98622 60.44460 29.88026 43.16843 36.22819 12.44682 
541 95.70490 62.03479 49.83248 49.31155 41.41282 25.02495 
542 7.827557 3.781199 16.82600 0.797225 0.726425 1.752621 
543 18.15645 5.075778 25.50357 1.741014 1.347916 3.846279 
544 59.84717 5.174697 25.97602 10.94486 6.477662 5.022913 
545 69.25226 13.44432 37.29014 16.82332 10.23527 10.56973 
546 74.92224 29.59758 47.21579 23.74935 16.21396 17.87390 
547 83.72537 39.54907 59.86106 34.20201 24.98888 31.06178 
548 100.0000 51.16856 67.11401 52.48872 39.11054 41.05230 
549 0.00000 0.00000 0.00000 0.466210 0.468490 0.664804 
550 91.09243 91.57670 7.361349 57.64617 62.77328 13.52920 
551 100.0000 100.0000 100.0000 94.91872 100.0497 108.7940 
552 32.62716 58.07573 46.07028 15.24851 20.50232 17.72195 
553 54.05113 63.34378 61.44979 26.97543 30.58347 33.51501 
554 62.29609 79.89530 78.57629 44.37803 51.76227 58.62737 
555 18.77063 48.60342 43.60360 9.516126 13.29924 14.22347 
556 21.52896 57.06021 59.30326 15.22142 20.63891 27.24400 
557 47.85874 57.74729 81.78640 27.69050 29.68069 58.28101 
558 55.67393 61.57836 91.56673 36.25315 37.54107 77.35676 
559 26.98253 41.95382 70.95405 13.98770 14.87049 38.34475 
560 32.59222 49.37622 77.31167 19.07696 20.75633 48.60598 
561 90.25561 36.67293 10.40827 32.35448 21.52769 4.662100 
562 91.70106 44.56591 22.28626 36.09726 26.05797 7.800654 
563 76.51654 10.67351 1.355964 18.56016 10.70186 2.390142 
564 93.41196 20.52828 6.897115 31.66753 18.61537 3.609463 
565 92.92492 22.20008 25.26377 32.32149 19.39873 6.884547 
566 91.29595 29.43412 56.20847 36.18625 23.42100 26.52512 
567 91.96108 45.76786 56.62684 41.56591 30.75423 28.35869 
568 88.72733 45.41256 44.29897 36.33260 27.08945 18.08971 
569 86.99997 67.09450 45.08850 43.78302 40.80584 21.91407 
570 86.50774 77.96947 51.56746 50.91632 51.97655 29.29348 
571 25.00736 24.42977 99.43247 21.89338 19.31445 90.70132 
572 41.36940 44.75245 100.0000 29.76790 29.11634 94.78636 
573 0.612958 10.48505 22.15261 1.032890 1.067654 2.676552 
574 6.202279 36.57161 23.04358 3.913318 6.077383 4.266821 
575 13.83992 67.52337 24.95170 14.14247 23.57454 8.925439 
576 12.39046 77.23413 34.58244 19.91080 32.97428 14.12227 
577 56.42546 89.87814 51.91327 41.36266 55.47610 29.94688 
578 94.04828 70.60419 8.428909 46.88038 42.10943 9.050246 
579 95.94456 74.08372 20.99682 51.91786 48.23284 12.23896 
580 8.761801 22.75198 23.07784 2.011567 2.594362 3.445490 
581 24.05523 25.90678 32.90058 4.296972 4.509844 7.207170 
582 25.14951 52.02105 34.90560 10.30332 14.73658 10.27687 
583 24.82433 76.26937 59.02941 24.87981 36.73523 31.15394 
584 30.65748 87.77681 75.02633 37.52307 53.51656 52.40073 
585 43.37791 95.77142 78.40528 47.53506 65.61543 60.52954 
586 78.55570 47.14915 22.41516 27.41871 21.92808 7.396338 
587 85.35639 53.12321 51.93709 37.85982 31.01093 24.62071 
588 63.13916 26.87820 6.807886 14.01584 9.720566 2.585696 
589 71.17811 34.64697 21.17749 19.97748 14.50657 5.484334 
590 79.18721 37.84711 29.88886 26.03805 18.98763 8.987096 
591 65.87909 43.64767 20.96466 19.23782 16.30760 5.922564 
592 66.46422 51.48480 54.17146 26.21289 24.14383 25.19819 
593 71.33945 55.10684 65.12331 32.39160 29.77294 36.98699 
594 82.10159 55.37155 65.61811 39.00256 33.41769 37.79027 
595 93.15953 65.95878 91.76864 61.56681 54.05648 82.31926 
596 49.80570 24.56459 51.09857 12.20318 9.176719 18.96600 
597 64.58089 34.88605 51.60300 20.10673 15.41443 21.15264 
598 65.18468 44.82746 75.11499 28.23118 24.11713 48.59469 
599 67.45229 56.04860 74.82485 33.40113 31.57494 49.53430 
600 66.48803 66.98289 92.40030 44.63698 45.54851 81.87152 
601 29.84648 81.75379 83.13754 35.88754 48.77580 63.11996 
602 44.66206 88.34242 93.63428 49.33945 63.31277 87.38649 
603 64.63526 7.584269 48.46464 15.47692 9.498721 17.44442 
604 74.70159 13.58035 52.05316 21.73125 13.34595 20.77062 
605 78.81962 11.64561 63.86385 26.03445 16.10844 32.42387 
606 79.13906 35.14141 68.68417 31.71760 22.82943 39.18063 
607 87.47978 46.93317 77.51730 43.06737 33.18683 53.53789 
608 0.807974 86.44886 29.99956 24.56571 41.82159 13.96828 
609 31.21564 90.77279 47.06714 33.42763 51.68892 25.37677 
610 39.06990 90.52395 54.35532 36.56351 53.85314 31.16109 
611 61.94539 98.96225 76.94027 56.99909 73.15493 60.33022 
612 0.887132 15.71795 73.22916 8.042560 6.611444 35.78037 
613 28.64911 13.58841 88.73743 15.69221 12.23073 64.22828 
614 33.17286 23.55805 91.26295 18.80279 15.50276 70.96495 
615 42.87876 24.49518 99.30082 25.39643 21.24344 91.15085 
616 88.95122 48.29329 8.772813 34.35129 25.75200 5.576979 
617 99.09683 53.85112 9.913194 44.96224 33.53773 6.799224 
618 74.16622 93.02149 8.112971 47.09386 57.95363 13.12394 
619 82.59814 96.83030 28.17038 57.88700 69.00052 18.98186 
620 22.73505 60.37981 2.715693 10.38034 16.52396 4.535731 
621 40.68382 77.49223 8.568614 21.99886 32.43295 8.259637 
622 49.59126 81.11811 66.69282 35.89884 46.84716 41.81782 
623 24.57350 68.39890 72.17611 23.72018 31.95987 43.75638 
624 41.81188 69.45535 77.20814 29.67295 36.49016 52.95589 
625 49.93179 77.91472 86.13680 40.41258 49.13345 69.82414 
626 2.524919 48.04721 53.94338 9.954747 13.85399 19.72411 
627 11.29648 53.42180 54.91880 12.03708 16.96258 21.90271 
628 35.73390 83.76427 17.24243 25.61658 39.95504 10.83028 
629 57.78486 83.74364 21.11950 33.46752 44.66184 12.59215 
630 64.62826 91.61382 33.26751 44.01048 57.67146 19.09884 
631 71.96716 72.00753 14.13899 33.27527 36.20955 9.132424 
632 80.74004 75.05786 21.76934 40.46414 42.25923 11.80268 
633 94.02014 74.30675 40.88169 52.69749 49.78579 20.78117 
634 93.31967 78.05812 60.78708 58.21613 56.57104 38.21317 
635 71.40719 23.84873 58.58939 22.61330 15.15531 26.93211 
636 76.61104 24.05136 69.61177 28.38152 18.93936 40.28661 
637 40.96471 1.270562 68.75971 11.19874 7.771232 34.55463 
638 44.92211 11.49374 72.14349 13.72683 9.654687 39.74152 
639 61.71187 36.51556 80.07986 25.96597 20.78699 54.17630 
640 73.28655 51.23303 90.36734 40.15381 34.89073 74.62681 
641 75.76598 77.20771 89.83036 54.17550 56.59011 79.23870 
642 9.970740 35.53991 32.89061 4.603390 6.516364 7.351330 
643 9.844703 42.24049 45.89549 7.391198 10.13380 14.16907 
644 9.901656 52.27472 66.21070 13.67944 17.93962 31.90984 
645 52.84500 38.65044 6.207777 11.95975 10.60598 2.953048 
646 76.60059 39.71199 8.432365 23.62339 17.41570 4.136143 
647 90.09511 59.53981 9.620002 39.19668 32.59431 7.187466 
648 92.93484 80.82312 5.354826 51.02998 50.18778 10.76623 
649 51.87278 56.65187 12.95777 16.49316 18.91770 5.424380 
650 69.13602 59.71953 16.36337 25.63330 25.58493 7.260856 
651 74.17719 81.08242 57.26755 45.84600 51.67453 33.73640 
652 88.27989 95.29725 74.11889 70.35720 77.91880 58.07201 
653 22.68975 33.86002 53.68341 8.043413 8.587903 20.32711 
654 27.25611 51.70093 66.20313 15.92925 19.26282 34.40457 
655 42.80735 56.53949 70.45921 22.28539 24.98086 41.64944 
656 55.13942 60.86522 74.67155 29.51965 31.42943 48.43030 
657 82.86275 74.93581 2.893466 39.95958 40.24795 9.001241 
658 91.19161 79.81369 27.60364 51.71211 52.22146 15.22034 
659 100.0000 88.27885 57.33535 70.34760 70.83616 37.39191 
660 43.89448 9.715164 4.154340 5.361381 3.351407 1.267613 
661 55.82718 12.19924 7.571726 9.271157 5.638678 1.770644 
662 55.99639 14.46865 20.25530 9.912905 6.224452 3.644668 
663 68.97931 22.51743 26.76506 16.93156 10.93724 6.424729 
664 78.48857 56.97522 29.95183 31.47753 28.12816 11.14844 
665 78.77488 65.40682 35.98681 36.03404 35.26721 15.50592 
666 39.44929 65.21983 8.619193 15.74704 22.05139 5.926151 
667 50.55253 68.40622 8.898710 20.53730 26.29810 6.803224 
668 61.27487 77.02738 5.469844 28.63850 35.37447 8.550317 
669 74.30466 81.42655 8.368293 39.13071 44.79273 10.44483 
670 82.04780 88.74618 13.50524 49.00371 55.96222 13.00274 
671 39.19636 7.841149 84.83316 15.82527 11.64665 57.72506 
672 48.24573 8.808178 90.09174 20.55321 14.99305 68.93604 
673 89.22833 9.992179 91.06183 41.14683 26.66437 74.10056 
674 89.81081 4.271486 46.02741 28.96719 16.83341 16.75851 
675 90.05697 8.112736 62.44943 33.19549 19.85120 31.84691 
676 99.63435 10.78944 74.90771 44.85391 27.13496 48.54656 
677 39.20080 7.390040 46.38400 6.903080 4.660293 14.48918 
678 43.82415 8.687976 58.25556 10.07769 6.855357 24.49742 
679 54.96784 7.880628 60.10793 13.87817 9.034553 27.10040 
680 58.98103 7.901549 70.32555 17.52989 11.55445 38.41138 
681 73.86416 21.41273 4.795553 18.62670 11.54896 2.699169 
682 83.82979 28.38773 2.755929 25.79330 16.33826 3.420972 
683 96.90771 30.33423 16.06344 36.40628 22.67026 5.286000 
684 53.12987 1.523162 10.41804 7.675076 4.502469 1.754181 
685 54.78179 21.28031 41.08769 12.20204 8.446050 12.33156 
686 62.09195 29.99932 40.89704 16.32204 12.01526 12.80724 
687 29.43619 58.51957 11.52142 11.18308 16.67704 4.916922 
688 48.07915 68.49853 20.70041 21.23657 28.05546 8.906570 
689 74.41944 92.16236 21.72898 48.60322 59.90721 15.59331 
690 86.26166 100.0000 51.74804 66.92779 78.05619 34.27713 
691 60.51618 50.20597 8.482073 17.70398 17.05471 4.479747 
692 67.22730 54.41612 28.26138 23.81400 22.95901 9.580807 
693 70.61430 64.49498 47.22815 32.22083 32.81502 21.85128 
694 79.69016 70.68577 57.45870 43.02515 43.21653 32.60999 
695 44.70069 36.44477 58.27493 14.11559 12.83811 25.99598 
696 54.65671 39.64378 67.33075 20.12948 17.56703 36.63923 
697 5.172322 76.87447 43.47987 20.56892 33.61431 18.00513 
698 9.269301 88.36400 62.75497 31.70455 49.75102 35.26953 
699 8.868995 96.88094 71.52186 39.89806 61.49279 46.41213 
700 91.18804 33.66871 67.19774 39.56259 26.76050 38.36585 
701 94.36303 45.03849 86.12066 51.20784 37.89631 68.33041 
702 20.30452 28.12624 23.02869 3.515957 4.289078 3.992455 
703 25.60617 35.13823 31.32492 5.800555 7.018967 7.335903 
704 33.80921 36.52403 38.71914 8.260343 8.879396 10.76538 
705 37.13420 38.47038 76.76133 16.82999 15.86695 47.00402 
706 24.90800 4.438152 59.03793 6.457535 4.712979 23.63297 
707 42.32037 21.97758 72.97736 14.35569 11.06873 41.32576 
708 51.35691 23.88597 82.86586 20.29741 15.36069 56.16977 
709 79.85947 41.28908 90.87287 41.76745 32.19511 75.49157 
710 49.60409 11.31088 29.68480 8.031580 5.101925 6.154862 
711 59.62802 10.38433 38.38606 12.31281 7.591938 10.52580 
712 59.89522 25.90378 71.84623 20.82789 15.16990 41.43838 
713 73.85276 38.24989 78.86548 32.40394 24.83208 53.73533 
714 34.35609 8.796742 35.23112 4.802582 3.282747 7.911018 
715 34.36898 21.72394 35.25097 5.821775 4.840327 8.296578 
716 54.97059 72.96714 60.99179 31.94551 38.70175 34.68542 
717 63.95815 77.38807 67.99755 40.07794 46.26299 44.16497 
718 4.617174 10.55325 44.48927 2.767784 2.350036 11.02121 
719 6.518448 18.72461 52.91922 4.374995 4.024046 16.63578 
720 22.90439 5.797561 39.14110 3.328475 2.441307 9.288086 
721 48.11209 75.83821 37.78624 26.65725 36.09225 16.69773 
722 88.64797 85.19438 38.52120 54.50222 58.05575 21.41845 
723 95.66491 90.58138 45.84852 66.12828 69.72227 28.13524 
724 58.07337 31.34864 90.58312 26.95257 21.25388 71.65175 
725 57.22286 85.37793 94.71105 52.42213 62.88736 90.28137 
726 11.32000 23.67522 76.35225 10.26952 9.076186 42.15896 
727 12.60341 35.08139 76.75957 12.00741 12.04002 43.14952 
728 7.799509 91.86407 81.67044 39.21432 58.20539 58.48437 
729 10.39620 92.40601 91.90561 44.60677 63.53145 78.89603 
730 59.95354 94.85026 91.39106 59.05048 73.42698 84.96864 
731 6.837090 20.90955 35.79322 2.630687 2.884680 7.436207 
732 18.02205 30.90297 41.19680 5.089022 5.859618 11.15946 
733 24.83355 33.26168 79.30131 14.11693 13.18679 48.78467 
734 29.91596 50.08384 89.08342 22.76617 24.29412 67.44100 
735 38.23971 75.73036 90.90456 37.38984 46.52222 77.20800 
736 46.34089 97.39781 90.96146 54.76881 72.82350 82.96616 
737 4.481467 35.72897 4.163211 3.030165 5.020625 1.829048 
738 9.748631 40.20136 12.08459 4.240190 6.918760 2.718388 
739 15.70446 46.54546 23.60102 6.652591 10.37764 5.439569 
740 25.55751 61.98706 25.44693 13.11786 20.15752 8.430890 
741 37.78761 65.11189 25.11106 16.68180 23.81748 9.119692 
742 64.67431 69.68126 24.74923 28.77498 32.78232 10.88285 
743 38.29806 50.06196 60.70241 16.44787 18.51109 29.14832 
744 38.57555 59.45482 90.08629 29.10295 32.32693 72.63739 
745 0.00000 26.70198 79.13480 10.62634 9.766432 43.37864 
746 38.42455 28.85671 82.10268 17.01448 14.19209 54.15771 
747 45.38548 41.14364 90.71144 24.79473 22.65209 71.44998 
748 54.21340 49.37421 90.90106 30.39975 28.73325 73.94363 
749 55.84461 68.26679 43.80418 26.39663 31.76975 19.15635 
750 65.62449 75.26016 44.15119 34.53846 40.44087 21.53494 
751 72.36897 86.63767 48.45435 46.76793 55.80635 27.88516 
752 78.47843 91.84969 59.77173 56.80087 66.39924 39.35497 
753 89.85093 90.89282 60.34221 64.36932 70.05258 40.75763 
754 93.36024 91.41682 81.27629 73.48445 77.07397 68.13246 
755 39.01857 52.07687 36.03656 13.18898 16.40783 11.45634 
756 44.64860 54.04442 47.47377 17.09720 19.83425 18.83387 
757 20.90384 12.33143 66.16921 7.701698 5.958178 30.62465 
758 29.94473 21.32125 78.69663 13.07111 10.56266 48.31780 
759 0.00000 27.89226 58.15608 6.142857 6.456817 20.95412 
760 9.531745 39.70882 57.90396 8.689987 10.56866 22.93151 
761 10.12292 59.09421 75.04545 18.51525 24.23487 43.22728 
762 8.090167 79.06987 76.03272 29.00180 42.20255 48.30507 
763 9.849731 80.31665 93.53964 36.83275 49.75236 80.60016 
764 3.545129 74.37167 86.40222 29.29043 40.31705 61.50570 
765 23.82568 75.23484 88.78270 32.92036 43.07881 70.92403 
766 90.83679 91.70298 92.47563 76.76800 81.18703 89.43899 
767 25.36579 7.706539 8.549915 1.946550 1.408389 1.061869 
768 24.10956 17.90227 7.181087 2.257870 2.118496 1.170270 
769 26.33514 77.12876 6.739902 18.41623 29.88334 7.686244 
770 33.13083 82.89988 27.80937 25.29020 39.42221 13.46681 
771 51.39936 91.49903 41.01424 38.73486 54.73300 22.63086 
772 10.11642 56.65898 22.22757 9.278661 15.44348 6.419486 
773 8.358679 59.49254 43.28708 12.44667 19.38870 14.70741 
774 32.69995 59.06512 60.63838 18.19183 23.26075 29.96687 
775 43.74990 67.28098 66.26643 26.22016 32.51319 38.34136 
776 90.95622 67.65937 69.88798 52.70737 47.61126 47.12609 
777 92.99097 76.56808 78.16596 61.74953 59.01888 59.95810 
778 50.67777 44.84646 41.37615 15.10754 15.05100 13.91866 
779 68.69415 54.00499 41.84998 26.18128 24.67295 16.56050 
780 74.88411 84.99308 68.22728 51.43125 58.33094 47.00382 
781 78.22802 92.37606 77.16990 62.36965 71.74764 61.41357 
782 8.909358 8.156258 54.83216 4.280075 3.379677 18.32121 
783 9.164937 24.75660 65.67261 7.300434 6.865112 27.87859 
784 6.328266 66.54244 79.34876 23.01268 31.22611 49.35409 
785 7.006882 68.04862 93.55604 29.66983 37.68946 77.16380 
786 65.56816 7.178531 79.24701 22.69225 15.01977 51.45088 
787 70.22482 18.30837 88.16115 29.87890 20.64528 67.60021 
788 93.89283 24.18869 89.74901 47.02629 31.19521 73.44241 
789 78.91160 7.500626 76.57700 28.80295 18.26021 48.98775 
790 89.97034 5.849821 76.22105 35.86945 22.08227 49.21408 
791 89.12207 17.89710 79.85667 38.68814 24.67580 55.49790 
792 90.13131 34.83896 88.35380 45.92887 32.34948 70.54508 
793 7.708435 86.69173 48.03161 27.46376 44.88541 22.74846 
794 23.26678 89.43256 54.99191 32.42074 50.44869 30.22276 
795 25.38996 90.57861 65.34197 35.92488 54.15539 40.47300 
796 39.32192 91.96299 66.66322 40.56977 58.40775 43.67964 
797 23.55388 39.69371 45.76566 8.063924 9.844031 14.91297 
798 30.49970 49.89483 53.25891 13.22754 16.34124 21.99039 
799 91.82507 57.73508 62.16552 46.66431 38.66987 36.19004 
800 41.64020 5.314224 24.23769 5.277938 3.326099 4.174980 
801 48.48775 23.58317 31.76279 9.291797 6.981960 7.395387 
802 49.78483 34.11439 34.90908 11.67901 10.18134 9.320329 
803 56.61003 52.41899 50.55338 21.15877 21.65523 21.45511 
804 1.072892 24.41355 17.45498 1.818522 2.657622 2.265111 
805 5.344667 29.59053 42.48558 4.282300 5.196524 11.04145 
806 0.00000 64.59232 56.29988 16.28205 24.57801 23.75779 
807 2.731008 74.10670 64.32423 22.76632 34.42684 32.65621 
808 15.95511 82.27630 84.15135 34.38481 48.29908 63.12249 
809 74.11732 45.45482 67.07725 31.30769 25.46741 38.12618 
810 78.31501 60.96885 77.67962 42.66774 39.09281 54.93687 
811 77.77359 62.39678 91.68392 48.15188 44.64221 80.05513 
812 39.69398 48.64749 22.32875 11.04173 13.48294 6.050238 
813 47.83738 54.96007 26.96615 15.72348 18.54085 8.532167 
814 57.47533 60.67305 29.52962 22.09127 24.86321 10.72531 
815 100.0000 100.0000 100.0000 94.96008 100.1398 108.7946 
816 21.95305 28.37128 12.57361 3.182855 3.935172 2.004675 
817 21.57236 49.42367 13.42217 7.328493 11.31326 3.880195 
818 22.57077 63.34159 39.27706 14.97409 22.75542 14.17281 
819 36.37421 70.92249 41.58991 21.34182 30.56466 17.40230 
820 49.00194 88.95471 59.37225 39.59358 54.47982 35.86641 
821 57.12284 91.23471 67.22091 46.41888 60.72644 45.47960 
822 68.50094 89.58222 86.07374 56.95714 66.94911 73.49365 
823 77.75535 91.10377 92.70062 66.64830 74.94319 88.08454 
824 71.82842 10.81339 21.52232 16.52535 9.696144 4.543499 
825 79.01283 11.13852 30.17755 20.85268 12.19849 7.673040 
826 89.30891 24.69306 36.12776 30.70212 19.01931 11.37183 
827 47.07701 32.59641 12.58084 8.938969 7.780845 2.781643 
828 47.22887 35.90414 23.68695 10.26804 9.592204 5.242687 
829 35.51194 34.01656 8.922740 6.139966 6.534159 2.278912 
830 56.03318 45.10658 24.98196 15.46185 14.74263 6.860549 
831 59.14380 48.01124 35.60154 18.79697 18.06624 11.81899 
832 7.861661 2.563052 77.81491 8.942799 6.870895 41.59227 
833 10.43316 13.48746 81.51021 10.64743 8.510019 48.08633 
834 74.53660 18.51723 97.95306 36.87309 26.58643 90.02658 
835 15.14036 73.20494 48.06729 19.81897 31.26151 20.83606 
836 30.04333 78.99035 48.14483 25.13834 37.85911 23.03431 
END_DATA
CAL    

DESCRIPTOR "Argyll Device Calibration State"
ORIGINATOR "Argyll dispread"
CREATED "Mon Jun 13 22:22:20 2022"
DEVICE_CLASS "DISPLAY"
COLOR_REP "RGB"

NUMBER_OF_FIELDS 4
BEGIN_DATA_FORMAT
RGB_I RGB_R RGB_G RGB_B 
END_DATA_FORMAT

NUMBER_OF_SETS 256
BEGIN_DATA
0.00000 0.00000 0.00000 0.00000 
0.00392157 0.00290130 0.00316182 0.00234956 
0.00784314 0.00590053 0.00640350 0.00475407 
0.0117647 0.00900271 0.00972809 0.00721549 
0.0156863 0.0122133 0.0131388 0.00973586 
0.0196078 0.0155379 0.0166391 0.0123173 
0.0235294 0.0189829 0.0202325 0.0149621 
0.0274510 0.0225549 0.0239227 0.0176727 
0.0313725 0.0262611 0.0277138 0.0204514 
0.0352941 0.0301092 0.0316088 0.0233009 
0.0392157 0.0341093 0.0356077 0.0262239 
0.0431373 0.0382766 0.0397152 0.0292233 
0.0470588 0.0426154 0.0439310 0.0323023 
0.0509804 0.0471226 0.0482568 0.0354659 
0.0549020 0.0518037 0.0526969 0.0387215 
0.0588235 0.0566585 0.0572440 0.0420821 
0.0627451 0.0616487 0.0618855 0.0455574 
0.0666667 0.0667245 0.0666096 0.0491578 
0.0705882 0.0718517 0.0714035 0.0528920 
0.0745098 0.0770062 0.0762493 0.0567625 
0.0784314 0.0821868 0.0811331 0.0607701 
0.0823529 0.0873915 0.0860515 0.0649116 
0.0862745 0.0925981 0.0909901 0.0691828 
0.0901961 0.0977900 0.0959141 0.0735769 
0.0941176 0.102919 0.100810 0.0780735 
0.0980392 0.107976 0.105646 0.0826498 
0.101961 0.112964 0.110432 0.0872890 
0.105882 0.117871 0.115151 0.0919640 
0.109804 0.122717 0.119786 0.0966517 
0.113725 0.127509 0.124348 0.101327 
0.117647 0.132213 0.128841 0.105982 
0.121569 0.136838 0.133251 0.110574 
0.125490 0.141387 0.137589 0.115113 
0.129412 0.145866 0.141862 0.119609 
0.133333 0.150272 0.146074 0.124032 
0.137255 0.154592 0.150228 0.128394 
0.141176 0.158850 0.154307 0.132700 
0.145098 0.163053 0.158306 0.136948 
0.149020 0.167189 0.162235 0.141100 
0.152941 0.171264 0.166095 0.145171 
0.156863 0.175281 0.169885 0.149164 
0.160784 0.179226 0.173609 0.153075 
0.164706 0.183083 0.177277 0.156911 
0.168627 0.186842 0.180887 0.160670 
0.172549 0.190501 0.184436 0.164339 
0.176471 0.194098 0.187928 0.167924 
0.180392 0.197635 0.191359 0.171440 
0.184314 0.201103 0.194736 0.174888 
0.188235 0.204498 0.198075 0.178268 
0.192157 0.207819 0.201373 0.181583 
0.196078 0.211065 0.204622 0.184847 
0.200000 0.214250 0.207823 0.188065 
0.203922 0.217400 0.210979 0.191227 
0.207843 0.220517 0.214091 0.194322 
0.211765 0.223602 0.217166 0.197349 
0.215686 0.226659 0.220224 0.200311 
0.219608 0.229697 0.223266 0.203220 
0.223529 0.232730 0.226294 0.206097 
0.227451 0.235757 0.229308 0.208944 
0.231373 0.238777 0.232312 0.211763 
0.235294 0.241797 0.235314 0.214547 
0.239216 0.244838 0.238315 0.217299 
0.243137 0.247912 0.241312 0.220019 
0.247059 0.251019 0.244306 0.222706 
0.250980 0.254158 0.247302 0.225361 
0.254902 0.257329 0.250313 0.227997 
0.258824 0.260521 0.253342 0.230618 
0.262745 0.263734 0.256392 0.233221 
0.266667 0.266975 0.259460 0.235819 
0.270588 0.270233 0.262537 0.238418 
0.274510 0.273503 0.265611 0.241021 
0.278431 0.276776 0.268679 0.243627 
0.282353 0.280053 0.271749 0.246241 
0.286275 0.283340 0.274816 0.248863 
0.290196 0.286641 0.277879 0.251484 
0.294118 0.289923 0.280937 0.254098 
0.298039 0.293183 0.283989 0.256704 
0.301961 0.296420 0.287035 0.259322 
0.305882 0.299638 0.290093 0.261958 
0.309804 0.302838 0.293156 0.264615 
0.313725 0.306017 0.296215 0.267295 
0.317647 0.309165 0.299270 0.269998 
0.321569 0.312288 0.302321 0.272722 
0.325490 0.315398 0.305370 0.275463 
0.329412 0.318495 0.308423 0.278207 
0.333333 0.321585 0.311483 0.280953 
0.337255 0.324663 0.314547 0.283708 
0.341176 0.327717 0.317617 0.286475 
0.345098 0.330743 0.320698 0.289251 
0.349020 0.333733 0.323788 0.292037 
0.352941 0.336686 0.326888 0.294833 
0.356863 0.339602 0.329988 0.297635 
0.360784 0.342496 0.333078 0.300443 
0.364706 0.345402 0.336157 0.303261 
0.368627 0.348320 0.339219 0.306090 
0.372549 0.351248 0.342262 0.308910 
0.376471 0.354183 0.345286 0.311717 
0.380392 0.357123 0.348298 0.314511 
0.384314 0.360064 0.351321 0.317290 
0.388235 0.363008 0.354357 0.320055 
0.392157 0.365954 0.357405 0.322808 
0.396078 0.368904 0.360460 0.325553 
0.400000 0.371842 0.363515 0.328289 
0.403922 0.374767 0.366563 0.331018 
0.407843 0.377674 0.369604 0.333749 
0.411765 0.380580 0.372639 0.336487 
0.415686 0.383500 0.375668 0.339229 
0.419608 0.386432 0.378680 0.341975 
0.423529 0.389375 0.381676 0.344726 
0.427451 0.392327 0.384651 0.347472 
0.431373 0.395292 0.387616 0.350208 
0.435294 0.398274 0.390578 0.352932 
0.439216 0.401261 0.393539 0.355640 
0.443137 0.404246 0.396499 0.358329 
0.447059 0.407229 0.399456 0.361000 
0.450980 0.410212 0.402416 0.363655 
0.454902 0.413190 0.405384 0.366316 
0.458824 0.416164 0.408353 0.368991 
0.462745 0.419133 0.411327 0.371681 
0.466667 0.422101 0.414307 0.374388 
0.470588 0.425077 0.417292 0.377113 
0.474510 0.428073 0.420282 0.379854 
0.478431 0.431075 0.423276 0.382605 
0.482353 0.434078 0.426273 0.385361 
0.486275 0.437081 0.429282 0.388122 
0.490196 0.440087 0.432307 0.390887 
0.494118 0.443093 0.435358 0.393656 
0.498039 0.446101 0.438421 0.396410 
0.501961 0.449116 0.441494 0.399147 
0.505882 0.452134 0.444576 0.401865 
0.509804 0.455157 0.447668 0.404569 
0.513725 0.458200 0.450770 0.407279 
0.517647 0.461266 0.453881 0.410002 
0.521569 0.464347 0.457004 0.412741 
0.525490 0.467449 0.460139 0.415495 
0.529412 0.470582 0.463282 0.418252 
0.533333 0.473745 0.466440 0.421014 
0.537255 0.476921 0.469612 0.423788 
0.541176 0.480097 0.472795 0.426574 
0.545098 0.483260 0.475995 0.429369 
0.549020 0.486408 0.479220 0.432174 
0.552941 0.489563 0.482470 0.434990 
0.556863 0.492740 0.485730 0.437817 
0.560784 0.495942 0.488992 0.440651 
0.564706 0.499168 0.492251 0.443491 
0.568627 0.502413 0.495504 0.446339 
0.572549 0.505676 0.498766 0.449192 
0.576471 0.508951 0.502045 0.452051 
0.580392 0.512238 0.505339 0.454904 
0.584314 0.515524 0.508643 0.457765 
0.588235 0.518803 0.511949 0.460640 
0.592157 0.522077 0.515263 0.463528 
0.596078 0.525345 0.518582 0.466429 
0.600000 0.528614 0.521906 0.469344 
0.603922 0.531885 0.525237 0.472272 
0.607843 0.535159 0.528570 0.475215 
0.611765 0.538424 0.531910 0.478175 
0.615686 0.541674 0.535259 0.481155 
0.619608 0.544910 0.538625 0.484153 
0.623529 0.548129 0.542008 0.487168 
0.627451 0.551318 0.545400 0.490204 
0.631373 0.554473 0.548786 0.493259 
0.635294 0.557590 0.552167 0.496328 
0.639216 0.560671 0.555536 0.499420 
0.643137 0.563714 0.558894 0.502544 
0.647059 0.566722 0.562235 0.505701 
0.650980 0.569716 0.565554 0.508885 
0.654902 0.572747 0.568850 0.512073 
0.658824 0.575812 0.572121 0.515257 
0.662745 0.578913 0.575370 0.518435 
0.666667 0.582053 0.578599 0.521614 
0.670588 0.585229 0.581849 0.524821 
0.674510 0.588438 0.585126 0.528058 
0.678431 0.591669 0.588427 0.531327 
0.682353 0.594915 0.591753 0.534619 
0.686275 0.598173 0.595098 0.537930 
0.690196 0.601433 0.598461 0.541264 
0.694118 0.604693 0.601833 0.544623 
0.698039 0.607953 0.605209 0.548007 
0.701961 0.611207 0.608585 0.551406 
0.705882 0.614444 0.611944 0.554816 
0.709804 0.617660 0.615287 0.558235 
0.713725 0.620851 0.618622 0.561665 
0.717647 0.624032 0.621949 0.565113 
0.721569 0.627198 0.625258 0.568584 
0.725490 0.630334 0.628550 0.572075 
0.729412 0.633437 0.631827 0.575570 
0.733333 0.636507 0.635099 0.579067 
0.737255 0.639546 0.638364 0.582559 
0.741176 0.642580 0.641617 0.586026 
0.745098 0.645614 0.644857 0.589461 
0.749020 0.648650 0.648084 0.592861 
0.752941 0.651692 0.651301 0.596228 
0.756863 0.654742 0.654529 0.599563 
0.760784 0.657802 0.657773 0.602868 
0.764706 0.660877 0.661031 0.606143 
0.768627 0.663962 0.664304 0.609419 
0.772549 0.667035 0.667584 0.612734 
0.776471 0.670092 0.670877 0.616089 
0.780392 0.673125 0.674181 0.619489 
0.784314 0.676130 0.677488 0.622945 
0.788235 0.679106 0.680783 0.626467 
0.792157 0.682056 0.684068 0.630055 
0.796078 0.685013 0.687338 0.633700 
0.800000 0.687991 0.690598 0.637396 
0.803922 0.690993 0.693849 0.641129 
0.807843 0.694016 0.697118 0.644886 
0.811765 0.697050 0.700417 0.648674 
0.815686 0.700095 0.703746 0.652492 
0.819608 0.703151 0.707101 0.656311 
0.823529 0.706218 0.710479 0.660117 
0.827451 0.709295 0.713876 0.663909 
0.831373 0.712382 0.717294 0.667700 
0.835294 0.715472 0.720733 0.671488 
0.839216 0.718566 0.724188 0.675267 
0.843137 0.721663 0.727650 0.679033 
0.847059 0.724756 0.731115 0.682786 
0.850980 0.727839 0.734586 0.686545 
0.854902 0.730913 0.738053 0.690333 
0.858824 0.734003 0.741516 0.694174 
0.862745 0.737119 0.744986 0.698075 
0.866667 0.740252 0.748481 0.702033 
0.870588 0.743383 0.752001 0.706066 
0.874510 0.746513 0.755539 0.710180 
0.878431 0.749634 0.759095 0.714340 
0.882353 0.752737 0.762654 0.718536 
0.886275 0.755820 0.766209 0.722766 
0.890196 0.758892 0.769752 0.727039 
0.894118 0.761976 0.773294 0.731374 
0.898039 0.765081 0.776848 0.735837 
0.901961 0.768206 0.780412 0.740441 
0.905882 0.771341 0.783969 0.745189 
0.909804 0.774483 0.787508 0.750050 
0.913725 0.777641 0.791032 0.755010 
0.917647 0.780820 0.794548 0.760074 
0.921569 0.784017 0.798046 0.765233 
0.925490 0.787231 0.801517 0.770476 
0.929412 0.790472 0.804971 0.775801 
0.933333 0.793735 0.808407 0.781209 
0.937255 0.797013 0.811828 0.786774 
0.941176 0.800324 0.815242 0.792560 
0.945098 0.803657 0.818647 0.798568 
0.949020 0.807011 0.822048 0.804760 
0.952941 0.810383 0.825449 0.811089 
0.956863 0.813770 0.828851 0.817652 
0.960784 0.817169 0.832256 0.824474 
0.964706 0.820577 0.835669 0.831490 
0.968627 0.823994 0.839089 0.838742 
0.972549 0.827423 0.842513 0.846239 
0.976471 0.830867 0.845941 0.854061 
0.980392 0.834324 0.849372 0.862269 
0.984314 0.837795 0.852806 0.870906 
0.988235 0.841279 0.856244 0.880048 
0.992157 0.844778 0.859686 0.889702 
0.996078 0.848290 0.863131 0.899892 
1.000000 0.851817 0.866579 0.910667 
END_DATA
