CTI3   

DESCRIPTOR "Argyll Calibration Target chart information 3"
ORIGINATOR "Argyll dispread"
CREATED "Mon Jun 13 17:51:54 2022"
DEVICE_CLASS "DISPLAY"
COLOR_REP "RGB_XYZ"
TARGET_INSTRUMENT "X-Rite i1 DisplayPro, ColorMunki Display"
DISPLAY_TYPE_REFRESH "NO"
DISPLAY_TYPE_BASE_ID "1"
INSTRUMENT_TYPE_SPECTRAL "NO"
LUMINANCE_XYZ_CDM2 "79.218591 83.331399 90.624282"
NORMALIZED_TO_Y_100 "YES"
VIDEO_LUT_CALIBRATION_POSSIBLE "YES"

NUMBER_OF_FIELDS 7
BEGIN_DATA_FORMAT
SAMPLE_ID RGB_R RGB_G RGB_B XYZ_X XYZ_Y XYZ_Z 
END_DATA_FORMAT

NUMBER_OF_SETS 836
BEGIN_DATA
1 100.0000 100.0000 100.0000 95.06452 100.0000 108.7517 
2 39.60025 0.00000 0.00000 4.778837 2.871751 1.110540 
3 51.23213 0.00000 0.00000 8.110459 4.722536 1.429212 
4 59.22988 19.30410 31.34008 14.55719 9.944609 9.379847 
5 0.00000 86.90899 20.26359 25.58732 43.76165 13.01513 
6 13.46706 88.08354 22.36019 27.39999 45.74707 14.28239 
7 17.30515 100.0000 31.78814 36.90582 60.39137 20.24570 
8 0.00000 0.00000 71.98058 7.660205 5.876280 35.86625 
9 16.81811 0.00000 82.98448 12.43213 9.503209 54.89229 
10 18.32074 17.01863 100.0000 21.59387 19.00110 91.95486 
11 51.26895 19.59589 100.0000 29.77970 24.17979 93.73759 
12 53.46364 35.70716 100.0000 33.44230 29.67407 94.87858 
13 66.49950 44.72248 100.0000 42.04971 37.52985 96.68338 
14 88.33274 100.0000 100.0000 85.90496 94.97834 108.0831 
15 75.72254 0.00000 0.00000 17.90315 10.14647 2.270242 
16 82.70985 0.00000 16.16562 22.39330 12.70552 4.728337 
17 89.34815 10.59635 25.96354 29.40062 17.14318 8.315008 
18 100.0000 13.56827 29.08798 39.01033 22.74856 10.18528 
19 100.0000 0.00000 12.96134 35.30964 19.78764 4.793790 
20 100.0000 0.00000 25.12398 36.03288 20.32459 8.363122 
21 100.0000 0.00000 37.57789 37.16379 21.18745 14.27160 
22 100.0000 11.92838 46.13284 40.78578 24.00724 20.62994 
23 100.0000 0.00000 49.48357 38.92086 22.48011 22.66573 
24 100.0000 0.00000 62.16930 41.51487 24.44405 35.22656 
25 100.0000 13.03572 65.23003 44.83558 27.12375 38.67446 
26 100.0000 27.04558 75.05191 49.98297 32.58975 52.71256 
27 47.18709 68.58071 88.56511 37.85873 43.48947 74.81034 
28 49.64192 83.41522 100.0000 53.44714 64.95304 102.8625 
29 12.65826 13.07018 20.21387 2.184103 2.217600 3.836544 
30 24.12105 15.93196 29.06903 4.349985 3.799462 7.008552 
31 56.34936 50.78912 77.37506 29.91860 28.98638 54.10103 
32 67.23541 64.46371 81.46435 42.12355 42.47488 64.14180 
33 84.39015 100.0000 83.63850 75.18344 85.18735 75.68003 
34 83.34103 18.38844 0.00000 25.43340 15.35535 3.128206 
35 85.53729 48.55999 31.36508 35.77813 28.77662 13.27874 
36 100.0000 75.97514 69.34435 66.92208 62.01772 52.01283 
37 100.0000 88.16955 72.07236 75.55815 75.60880 57.85893 
38 33.73300 46.19677 12.01769 10.63320 13.47726 4.896599 
39 34.09378 61.36455 34.05495 17.58654 24.11057 14.22509 
40 46.22300 65.98225 48.06293 25.45515 31.89502 24.68125 
41 48.41618 77.13905 53.79299 33.07071 43.04462 31.40583 
42 74.27290 74.80885 64.90496 46.40244 49.49393 43.94266 
43 83.81905 74.96399 71.78588 54.38735 54.45941 52.88850 
44 10.16290 52.34590 10.63778 8.578424 14.15728 4.840489 
45 15.42191 57.75234 32.42043 12.66500 19.48410 12.13116 
46 74.54351 94.04903 39.59229 53.94861 65.79143 25.99708 
47 50.92142 100.0000 0.00000 41.88279 60.46639 13.57908 
48 52.78558 100.0000 18.78953 44.99901 64.20224 16.78845 
49 61.13795 100.0000 36.53564 50.68521 68.25884 24.56566 
50 75.65487 65.93456 25.08945 35.92601 36.56927 13.02425 
51 77.26992 74.92251 46.54489 44.17390 47.13937 26.96844 
52 76.18808 100.0000 100.0000 77.80932 90.49566 107.4145 
53 0.00000 0.00000 58.12631 4.861878 3.736880 22.22129 
54 16.76053 0.00000 65.77843 7.790827 5.790596 32.41186 
55 50.56612 0.00000 67.02538 15.05782 10.02877 37.29300 
56 67.10130 33.89736 67.54001 27.17421 21.02144 40.41703 
57 89.92376 49.48012 67.94767 45.58208 36.25837 44.19390 
58 90.97280 61.02353 78.38309 54.67803 47.43770 61.24777 
59 100.0000 84.69534 85.44626 77.57218 75.52042 77.79936 
60 50.89880 45.65960 0.00000 14.59291 14.60255 3.784794 
61 68.11784 56.58264 0.00000 25.51024 24.50314 5.780082 
62 84.87260 66.79420 0.00000 39.33753 36.61910 8.022637 
63 85.45413 73.30975 34.16682 46.93577 47.16514 18.95936 
64 39.04833 31.63763 31.31424 9.843863 9.471599 9.368722 
65 56.03732 31.90629 57.75326 19.32743 15.61387 28.64550 
66 74.44068 34.57700 58.47445 29.08182 21.74070 30.71703 
67 86.50602 35.47889 49.37512 35.40587 25.03619 23.57351 
68 100.0000 70.14006 55.25882 60.55801 54.12627 35.18424 
69 39.69235 54.21608 0.00000 13.33003 16.80391 4.449545 
70 39.71916 58.22579 16.82288 16.00579 20.96096 7.573779 
71 54.48774 70.75773 30.55848 28.07751 34.81567 14.91552 
72 58.71336 73.08348 16.00871 29.36397 36.03783 10.64284 
73 66.49591 86.08630 14.63228 41.07535 51.28226 13.29564 
74 62.72091 100.0000 0.00000 46.91333 63.32120 14.01222 
75 67.68572 100.0000 14.98621 51.57252 67.60284 16.46860 
76 0.00000 100.0000 25.62919 34.93197 58.92613 17.09953 
77 0.00000 100.0000 38.02026 36.34237 60.27337 22.12389 
78 0.00000 100.0000 75.94552 43.64510 66.53492 54.15356 
79 0.00000 100.0000 87.84604 47.45827 69.81887 71.45601 
80 37.11003 100.0000 86.73327 53.55769 73.53379 76.78179 
81 63.49847 100.0000 100.0000 70.81852 86.64115 106.7466 
82 0.00000 14.68076 63.37174 6.538755 5.722086 27.33137 
83 17.24656 33.72193 64.64874 11.26389 11.90457 33.20023 
84 20.05510 43.47235 81.38039 18.82372 20.28825 56.51167 
85 25.31735 59.98208 86.35683 27.06631 32.15788 66.77753 
86 72.94196 0.00000 54.44580 21.21473 12.88507 25.32126 
87 82.90934 0.00000 68.66359 29.80946 18.33780 41.38824 
88 85.05265 33.46712 78.52929 40.57994 29.13429 56.93586 
89 84.45809 35.81130 100.0000 49.39496 38.61023 96.43818 
90 28.75042 28.45392 42.81728 8.164375 8.093601 15.08688 
91 36.41243 29.13117 54.36619 11.94489 10.73964 24.37909 
92 78.35240 15.83880 14.40839 22.50872 13.65721 4.532409 
93 86.94392 23.38573 15.24379 29.50021 18.52964 5.630972 
94 100.0000 35.50364 25.35955 42.89875 28.59480 10.12074 
95 73.98115 32.32891 0.00000 22.32079 15.76387 3.542124 
96 72.64776 49.85877 12.40381 26.49997 23.46355 6.673359 
97 82.21272 56.43318 18.85218 35.51265 31.32078 9.545231 
98 81.65949 56.86986 40.99098 37.42598 33.56977 20.12946 
99 26.00899 25.19997 0.00000 4.192084 4.454601 1.570924 
100 42.49659 30.48608 0.00000 8.552696 7.767945 2.256455 
101 58.19295 30.34185 0.00000 14.05541 10.78994 2.753169 
102 62.55268 41.98756 43.91662 22.43501 19.70702 18.76068 
103 61.72667 82.56300 57.92722 42.90226 52.38011 37.50045 
104 65.59553 88.24871 72.87807 52.69019 63.06363 56.74162 
105 67.03653 42.99951 0.00000 21.06933 17.59617 4.174339 
106 82.07782 50.94878 0.00000 31.78094 26.02513 5.686906 
107 100.0000 59.86939 0.00000 48.30875 38.38770 7.536402 
108 20.44230 44.53381 58.51505 13.13516 15.99123 28.05792 
109 23.12720 78.71220 71.02063 31.31306 44.09417 48.24492 
110 40.71736 84.86659 84.65692 43.58489 56.44192 70.46705 
111 6.892000 28.87877 89.81449 16.57078 15.61057 66.23345 
112 17.02608 32.46044 100.0000 23.96179 23.27820 93.09081 
113 26.49390 46.56775 100.0000 29.38423 31.21004 95.13236 
114 33.01190 59.06240 100.0000 35.33188 39.98659 97.40077 
115 85.34946 68.01783 100.0000 63.30222 60.63807 101.6710 
116 33.29984 13.73491 65.53381 11.31840 8.590400 34.18787 
117 33.16889 37.94790 87.12711 21.82221 20.82682 66.47809 
118 19.83291 19.14958 82.49872 14.22249 11.97689 55.57136 
119 42.51813 18.30156 85.15475 19.55138 15.11642 62.00382 
120 0.00000 0.00000 35.00399 1.974706 1.585877 8.066516 
121 0.00000 0.00000 46.60894 3.220925 2.508081 14.17770 
122 0.00000 0.00000 100.0000 19.11857 16.23145 89.94621 
123 0.00000 14.30480 100.0000 19.86979 17.44007 90.39698 
124 83.60841 17.63563 100.0000 44.96163 32.32949 95.07195 
125 28.83372 68.51270 0.00000 16.26308 24.85079 6.399133 
126 43.78753 70.22084 0.00000 20.96832 28.45769 7.103108 
127 68.29998 71.63987 0.00000 31.86829 35.27105 8.260232 
128 86.70879 77.03611 13.07096 47.37301 48.05677 11.82702 
129 0.00000 100.0000 51.43547 38.23329 61.96880 29.94464 
130 0.00000 100.0000 63.45529 40.45993 63.86769 39.76379 
131 17.15728 100.0000 64.85883 42.65786 65.30520 44.45265 
132 0.00000 76.57760 54.97787 23.63085 37.16075 27.85167 
133 13.36635 78.01031 60.75120 26.92030 40.42382 35.46117 
134 36.72225 80.93584 61.10711 33.07706 45.78664 38.79234 
135 49.36478 87.86501 74.94998 45.55687 58.97207 57.62391 
136 100.0000 46.91551 0.00000 44.18095 31.49350 5.935483 
137 100.0000 73.82830 0.00000 54.63209 48.92727 9.916949 
138 100.0000 82.65319 17.53441 61.65481 60.20993 14.84658 
139 32.47542 0.00000 73.47048 12.15774 8.716419 43.30793 
140 32.96186 0.00000 87.76967 16.71642 12.49364 65.09653 
141 0.00000 58.69114 0.00000 9.576233 16.64914 4.561734 
142 0.00000 73.43892 0.00000 15.42925 26.95730 6.919929 
143 16.26577 75.77015 12.31725 18.97074 31.51850 9.071776 
144 19.34610 95.15631 74.12665 42.25424 62.50598 54.56711 
145 17.72841 100.0000 82.67740 47.72931 69.68334 67.46351 
146 100.0000 0.00000 0.00000 34.98114 19.55085 3.349072 
147 100.0000 15.25927 0.00000 37.76990 21.87446 3.725708 
148 100.0000 100.0000 12.77605 73.42307 79.41973 17.35701 
149 100.0000 100.0000 25.99514 74.73855 81.02653 21.37559 
150 100.0000 100.0000 39.00696 76.57701 82.70436 28.13171 
151 11.64634 46.81457 100.0000 27.31748 29.97935 94.46567 
152 17.46290 60.32972 100.0000 33.13560 39.36022 96.96175 
153 0.00000 13.63272 31.78752 2.316076 2.470928 7.062165 
154 15.64724 18.05992 41.67025 4.727252 4.500358 12.98238 
155 15.88626 18.60571 58.61824 7.364864 6.486214 25.45973 
156 33.08727 29.30574 70.90423 14.83278 13.34697 42.04590 
157 51.87441 34.42160 80.37457 24.19827 20.52356 56.93281 
158 62.66517 42.76003 89.46326 34.12832 29.54472 73.15064 
159 100.0000 47.73994 35.34141 47.41944 35.08036 16.02988 
160 100.0000 61.48909 39.14058 52.94541 43.91954 20.45515 
161 100.0000 62.96474 67.77765 59.67088 50.33981 47.28596 
162 22.41416 84.30502 15.05054 25.26782 41.14888 11.57513 
163 25.48234 92.51702 23.52421 31.99705 51.33706 15.76808 
164 18.49407 84.51092 0.00000 22.81671 38.03585 9.301375 
165 37.26505 84.42178 0.00000 26.27208 39.87393 9.638837 
166 55.17329 86.35178 9.315094 35.18311 47.58594 11.89969 
167 46.77176 0.00000 48.60097 10.11370 6.503258 18.80568 
168 64.61241 0.00000 85.80290 25.68000 17.36489 64.43462 
169 100.0000 35.79719 86.82542 55.88349 39.21597 71.36552 
170 100.0000 100.0000 100.0000 95.01668 99.99823 108.5302 
171 34.34916 0.00000 58.40938 9.052814 6.227262 26.32171 
172 49.11542 0.00000 81.88925 18.87267 13.18445 57.55618 
173 60.82752 20.44088 81.95037 25.55684 18.51907 59.34709 
174 0.00000 0.00000 22.54997 1.126527 0.959635 3.899853 
175 0.00000 14.93718 84.30231 11.88315 10.01593 52.90433 
176 0.00000 38.48700 84.76511 15.81919 16.98019 55.16560 
177 14.99034 24.67029 30.44088 4.287356 5.016890 7.754549 
178 19.08052 42.16557 33.38938 8.684074 11.87634 10.79332 
179 32.92956 45.84548 43.19587 13.23622 15.77650 17.54416 
180 44.40247 59.35368 57.11846 23.38926 27.55913 31.13176 
181 88.23262 0.00000 0.00000 25.56640 14.38066 2.824991 
182 100.0000 19.52784 15.31497 39.10892 23.29917 6.006641 
183 0.00000 61.18269 17.09986 11.85307 20.11955 7.367361 
184 0.00000 73.61788 28.04295 18.73899 31.55215 12.61318 
185 14.32593 34.36936 0.00000 4.191632 6.175442 2.048903 
186 31.92997 38.52218 0.00000 7.607887 8.999963 2.648518 
187 48.46209 44.14088 16.41574 14.42559 15.07758 5.957894 
188 58.69833 55.87186 20.54185 22.15232 23.50013 8.808888 
189 64.22686 81.25523 34.12466 38.62383 47.27814 19.35467 
190 0.00000 100.0000 100.0000 54.75578 77.30319 102.9672 
191 13.31213 100.0000 100.0000 55.96359 78.22955 104.5217 
192 51.65206 100.0000 100.0000 65.45781 83.66604 106.3009 
193 0.00000 0.00000 86.07768 11.70237 9.084130 55.33517 
194 13.73917 0.00000 100.0000 20.10632 17.00284 91.50035 
195 27.86799 0.00000 100.0000 21.75902 18.02313 91.94535 
196 36.04760 14.63226 100.0000 24.50810 20.46874 92.61983 
197 82.75928 51.75202 100.0000 53.95802 47.04261 98.48809 
198 100.0000 62.06723 100.0000 71.31568 61.40187 100.9766 
199 0.00000 13.25978 0.00000 0.965515 1.366523 0.880910 
200 0.00000 16.56132 15.93866 1.627356 2.174616 2.785321 
201 0.00000 19.08297 45.32613 4.269872 4.484406 14.23923 
202 11.95633 30.53426 51.55691 7.467039 8.389236 20.23273 
203 10.11717 54.39444 84.73442 22.04442 26.64457 60.98743 
204 30.17553 74.26940 100.0000 42.27523 52.50963 100.1416 
205 35.10017 87.47520 100.0000 51.54425 66.83514 103.1097 
206 0.00000 68.59460 42.46298 17.55251 28.37788 17.70978 
207 0.00000 88.54075 54.54183 30.86401 49.47220 29.84635 
208 35.92781 100.0000 58.72912 45.26005 66.50257 40.01314 
209 47.25901 100.0000 66.88481 51.04988 70.27955 50.16355 
210 100.0000 100.0000 76.21651 85.09563 89.93481 66.36758 
211 100.0000 100.0000 88.23162 89.38005 93.72634 85.22413 
212 0.00000 0.00000 0.00000 0.461559 0.463852 0.658355 
213 0.00000 100.0000 0.00000 32.14192 55.10373 12.61819 
214 13.25232 100.0000 0.00000 32.89918 55.52329 12.71446 
215 26.35892 100.0000 0.00000 34.71523 56.62098 12.91466 
216 37.84788 100.0000 15.28843 39.61900 60.98372 15.49271 
217 83.33075 83.20448 0.00000 46.43205 49.77724 10.96351 
218 100.0000 87.11890 0.00000 62.26862 61.77981 12.64617 
219 100.0000 87.41775 35.64511 67.10363 67.67448 23.57908 
220 0.00000 100.0000 12.97366 33.75732 57.51558 14.17713 
221 18.25722 100.0000 15.79657 35.40810 58.72615 15.06702 
222 32.26536 100.0000 29.88943 39.43689 61.71602 19.90242 
223 47.02167 100.0000 32.35213 44.22252 64.46935 21.53949 
224 83.09754 21.98039 57.15719 31.53185 20.53085 29.73706 
225 100.0000 38.71015 60.14152 48.91013 33.99234 34.80255 
226 62.60084 0.00000 14.77228 12.31848 7.130510 3.569829 
227 69.52708 0.00000 26.33339 15.97330 9.288627 7.419746 
228 80.67027 23.41040 25.77600 25.98620 16.78813 8.530623 
229 82.93123 34.17888 38.44137 30.86131 21.96020 15.93992 
230 46.62696 14.21053 14.20462 8.173621 5.556899 3.236027 
231 64.67254 21.02926 16.09213 16.24475 10.93602 4.708310 
232 63.71593 90.15166 43.81891 46.24557 58.86170 27.31278 
233 72.11886 100.0000 71.81606 63.76548 77.70668 57.26602 
234 0.00000 85.31656 38.49415 26.40279 43.75111 19.44444 
235 29.32492 85.04493 37.83544 29.18040 44.85784 20.30357 
236 18.75546 83.69498 45.17352 27.72689 43.59346 24.30817 
237 39.71451 100.0000 44.83130 43.38747 64.64188 28.35706 
238 53.46206 100.0000 50.22947 49.42309 68.31842 33.89279 
239 61.29149 36.70163 12.07622 17.32878 14.33895 4.777783 
240 70.59899 44.09408 33.41001 25.53155 21.53367 13.09281 
241 77.03252 50.01429 80.01035 40.77189 34.84434 60.08951 
242 56.59801 0.00000 100.0000 28.98850 22.06626 93.27890 
243 65.88235 14.22587 100.0000 34.75163 26.21191 93.95498 
244 68.82295 30.08031 100.0000 38.91896 31.22382 95.08937 
245 32.33635 69.52512 64.97723 26.42401 35.18940 39.68852 
246 61.06984 100.0000 64.51991 56.11626 72.94938 48.16952 
247 84.38367 100.0000 66.36802 69.88731 80.66153 51.50138 
248 0.00000 86.28806 0.00000 22.69101 39.23379 9.552290 
249 39.06448 100.0000 0.00000 37.83487 58.33857 13.21377 
250 75.44238 100.0000 0.00000 53.76547 67.13455 14.54355 
251 84.80219 100.0000 18.22610 62.30089 73.65665 18.02519 
252 80.66900 86.99690 27.79472 51.56699 58.69584 18.50933 
253 83.99580 88.31019 49.15016 57.79388 64.16137 32.21547 
254 13.49141 54.24358 0.00000 8.673368 14.23313 3.988303 
255 19.62993 63.97199 14.86388 14.20407 22.60410 7.528539 
256 24.79450 73.26767 37.43308 21.88735 33.45239 17.78724 
257 0.00000 57.62416 31.51175 11.45354 18.69696 10.68744 
258 0.00000 57.73029 65.05709 16.34694 22.92914 32.74632 
259 16.13038 62.85113 65.97015 20.72245 28.32610 37.88177 
260 14.51731 72.93889 100.0000 38.84434 49.69692 99.02354 
261 0.00000 27.76291 100.0000 21.66031 20.72074 91.08328 
262 0.00000 40.36481 100.0000 24.54104 25.83799 92.44610 
263 0.00000 52.79651 100.0000 28.68113 32.95970 94.04285 
264 0.00000 64.05806 100.0000 33.08727 40.75678 95.86612 
265 0.00000 87.85105 100.0000 46.89203 64.24648 100.8908 
266 26.39815 100.0000 100.0000 57.83246 79.32921 104.9665 
267 39.62078 100.0000 100.0000 61.07226 81.13893 105.6331 
268 36.32667 33.84852 20.10447 8.800895 9.132072 5.539494 
269 45.45748 44.15223 31.92488 14.82234 15.77250 11.23521 
270 66.51915 65.73880 36.83116 32.44051 35.15437 18.05001 
271 88.62107 66.03864 57.66535 49.94241 45.96111 35.71018 
272 71.94324 0.00000 100.0000 35.43369 25.72046 93.94749 
273 85.80314 0.00000 100.0000 42.94280 29.91363 94.61610 
274 100.0000 0.00000 100.0000 54.31204 36.19164 95.28593 
275 100.0000 12.35580 100.0000 56.91743 38.30355 95.73641 
276 52.43716 81.59915 0.00000 29.67691 39.65100 9.470427 
277 66.08243 86.92823 0.00000 39.52072 49.22343 11.26287 
278 26.08374 50.66313 0.00000 9.446861 13.50438 3.768506 
279 27.88913 51.33911 23.54339 11.59332 16.15661 8.183857 
280 55.29276 57.12973 40.22718 23.63601 25.97591 18.16480 
281 57.05378 71.07941 100.0000 48.72728 54.10495 100.5700 
282 71.58764 74.13374 100.0000 58.32357 61.44934 102.1441 
283 0.00000 26.52956 0.00000 2.160708 3.510506 1.408118 
284 0.00000 43.33748 0.00000 5.247778 9.011724 2.746828 
285 0.00000 48.40964 13.26211 7.293705 12.35438 4.776687 
286 0.00000 70.00161 72.91768 24.45080 35.10365 44.26892 
287 0.00000 83.04072 84.73785 34.79058 49.75995 62.68851 
288 25.31275 90.33600 91.32336 46.19528 63.11845 82.92857 
289 55.91010 62.85146 0.00000 22.16504 25.32176 6.230069 
290 87.83837 100.0000 0.00000 62.00937 71.60708 15.07666 
291 100.0000 100.0000 0.00000 71.63809 76.96558 15.51835 
292 43.97591 15.17106 39.06744 9.494675 6.815885 12.76074 
293 53.64583 14.07486 50.92454 14.37010 9.732230 21.48412 
294 65.97239 15.32140 63.01021 22.02701 14.63328 33.79815 
295 42.36621 0.00000 32.20316 6.941052 4.356163 8.528115 
296 71.61582 0.00000 40.50770 18.72109 11.07693 14.56491 
297 79.31824 19.07655 40.66636 25.97440 16.50213 16.16402 
298 100.0000 38.12990 46.16050 45.98634 31.57750 22.38356 
299 100.0000 53.60079 52.04029 52.39924 40.92400 29.46545 
300 63.28228 0.00000 0.00000 12.20122 6.994295 1.803717 
301 65.64566 15.37070 0.00000 15.42221 9.564095 2.303590 
302 87.32463 36.98225 0.00000 31.41402 21.69984 4.437535 
303 100.0000 51.88718 20.04915 47.19618 35.93808 10.13765 
304 42.82173 0.00000 100.0000 24.79837 19.75926 92.61217 
305 42.67225 69.20694 100.0000 42.60261 49.47143 99.66954 
306 0.00000 34.36456 69.13414 10.67743 11.84613 34.65961 
307 16.44087 46.30047 72.10290 16.27383 19.06327 42.86390 
308 0.00000 51.89150 75.55073 17.13801 21.73695 44.17122 
309 33.29994 60.29047 76.16881 25.62093 30.72489 52.36266 
310 60.54806 36.70519 30.73560 18.03187 15.21927 10.36162 
311 71.60900 100.0000 29.11160 55.48770 70.55248 21.28339 
312 83.60279 100.0000 37.41158 63.72518 75.52111 26.27889 
313 100.0000 100.0000 50.99960 78.69401 84.54753 37.12678 
314 100.0000 100.0000 63.74805 81.59658 86.92556 49.95285 
315 100.0000 30.95596 0.00000 40.37513 25.46638 4.529776 
316 100.0000 39.30669 12.04695 42.84572 29.13878 6.685840 
317 100.0000 37.10525 100.0000 62.21021 46.05521 97.55526 
318 100.0000 49.18696 100.0000 66.13210 52.50333 99.14697 
319 30.79928 0.00000 42.76197 5.827978 3.950059 14.08235 
320 30.40956 12.12202 52.51563 8.106831 6.124030 21.82824 
321 0.00000 28.16263 30.54523 3.826355 5.292308 7.230047 
322 0.00000 35.70465 47.75927 7.216155 9.428030 16.86888 
323 17.94605 69.73810 81.11057 28.89057 38.22922 59.73021 
324 30.95855 69.36922 81.70070 30.99213 39.21378 61.94622 
325 21.70922 16.18716 17.77121 3.295466 3.066760 3.508210 
326 47.00695 24.01655 19.89020 9.975312 7.894878 5.176627 
327 72.08975 30.60291 35.49896 23.19586 16.70484 13.15836 
328 72.26817 32.58699 89.61428 36.37260 27.79898 73.78987 
329 34.58316 40.46558 54.50816 14.03715 14.97249 25.38800 
330 41.60980 42.81108 67.33388 19.22034 19.21015 39.31326 
331 42.17973 50.27743 86.60907 27.56496 28.18178 67.84802 
332 51.80703 54.96156 100.0000 39.34909 40.33285 97.60737 
333 68.20700 59.46731 100.0000 48.37922 47.33682 98.95929 
334 0.00000 84.64064 69.59266 31.41485 47.86397 42.74671 
335 15.43547 86.11541 74.79978 35.80950 52.32361 53.84005 
336 100.0000 64.77507 14.03232 51.78299 43.83426 10.45960 
337 100.0000 70.00104 29.04482 56.09239 50.25599 16.49939 
338 100.0000 80.37766 46.48938 64.45605 62.03769 29.66346 
339 49.41061 0.00000 19.53229 8.157028 4.870493 4.440749 
340 57.39567 0.00000 34.67754 11.68409 7.036177 10.29883 
341 59.24997 0.00000 54.03624 15.16111 9.490475 23.81218 
342 66.52084 0.00000 70.46022 21.94781 14.06886 42.53928 
343 81.90055 0.00000 84.17031 34.02759 21.85085 63.32870 
344 100.0000 16.02096 84.26467 50.74586 32.16066 65.78381 
345 100.0000 69.10670 84.09920 67.67443 59.47891 71.71535 
346 100.0000 75.10245 100.0000 78.66826 73.63005 103.7129 
347 0.00000 41.22772 37.50706 7.050137 10.40950 11.27436 
348 0.00000 52.16652 47.22170 11.41667 17.06455 17.73272 
349 33.68973 100.0000 72.93697 48.14037 69.08174 56.15108 
350 52.84571 100.0000 81.76317 57.41489 75.12691 70.12851 
351 67.24835 100.0000 86.06537 65.73880 80.28505 78.11720 
352 0.00000 32.41340 14.92565 3.617217 5.790483 3.411916 
353 0.00000 44.81686 25.70701 7.100006 11.41728 7.321185 
354 7.806245 49.68744 36.13424 9.987773 15.18728 12.69335 
355 19.61339 58.72041 49.10346 16.21635 23.01522 22.53561 
356 25.67566 67.13047 53.14750 21.36800 30.19477 27.48813 
357 52.57871 73.47158 73.48034 37.26228 44.33039 52.65355 
358 55.29043 86.88130 83.56741 50.14559 62.04055 70.48752 
359 65.45377 86.69676 100.0000 62.81152 72.58323 104.4402 
360 85.07663 0.00000 35.09703 25.26903 14.55464 12.01870 
361 100.0000 24.32638 49.55806 43.52167 27.15486 23.64337 
362 100.0000 25.55669 61.71662 46.27076 29.39722 35.68864 
363 34.41609 0.00000 14.05352 4.209986 2.620783 2.617768 
364 39.41941 16.50027 26.22704 7.251301 5.465977 6.729828 
365 13.24230 0.00000 0.00000 1.045099 0.791084 0.731334 
366 14.52923 0.00000 33.41823 2.677074 1.981701 8.248105 
367 17.40448 0.00000 50.03120 5.059131 3.711744 18.82027 
368 49.15440 45.77677 54.10601 19.61780 19.74588 26.19617 
369 49.99648 50.70371 64.71415 23.84063 24.56302 37.99690 
370 60.26172 53.65648 64.36012 29.02317 28.73412 38.45058 
371 63.56932 66.53253 70.48209 38.11339 40.60856 48.84797 
372 74.01133 81.47585 80.16168 54.87683 59.97056 65.57085 
373 100.0000 0.00000 75.28509 44.99763 27.13530 51.79957 
374 100.0000 0.00000 87.60739 48.76335 30.43351 70.43238 
375 100.0000 24.69141 100.0000 59.16139 41.30557 96.41816 
376 83.67552 70.40334 83.98852 55.75932 53.99649 70.61177 
377 83.76460 84.77934 100.0000 72.16886 76.35794 104.8751 
378 100.0000 87.81479 100.0000 86.62769 86.69030 106.2322 
379 0.00000 0.00000 11.03211 0.652139 0.608923 1.576088 
380 16.82974 0.00000 15.65777 1.703442 1.232774 2.606525 
381 28.70087 0.00000 26.99043 3.893323 2.581683 6.248579 
382 86.53176 0.00000 53.72959 29.29150 17.33379 25.69866 
383 88.55128 21.16603 68.62486 38.20790 24.76093 42.93476 
384 65.14852 21.20904 47.22111 19.67967 13.48985 19.36381 
385 75.40793 46.22463 53.19154 31.77997 26.74131 27.49193 
386 76.30781 58.57977 53.17788 37.11296 34.58215 29.30813 
387 14.52372 15.18733 0.00000 1.848352 2.025803 1.031156 
388 15.63828 35.47488 18.93848 5.301818 7.472305 4.741023 
389 82.49165 37.98591 17.84304 29.71467 21.69613 7.096458 
390 100.0000 40.47926 73.95097 53.07882 37.76394 52.30156 
391 100.0000 53.86652 83.30616 60.40979 47.76449 67.43155 
392 47.54971 80.98697 18.10801 29.77702 41.34270 12.28805 
393 50.76553 84.57955 30.77445 34.48263 47.36574 17.63007 
394 14.48490 68.82587 0.00000 14.20441 23.81143 6.214022 
395 25.50551 74.08324 25.83099 21.05047 32.76060 12.76925 
396 55.62167 79.41542 45.79178 35.76070 45.45255 26.05669 
397 86.11707 83.80770 67.22883 60.36681 63.68503 50.06237 
398 85.40961 83.85575 81.21610 64.09199 67.04870 68.91763 
399 26.34575 0.00000 0.00000 2.467750 1.585840 0.882657 
400 32.83227 13.43814 0.00000 4.350982 3.256996 1.244181 
401 49.11323 16.80601 0.00000 8.921659 6.084356 1.766406 
402 52.53562 34.27984 45.99432 16.50763 14.24270 18.97136 
403 59.43525 62.58580 52.16495 30.16734 32.86050 28.11067 
404 76.34487 64.71452 67.61372 43.17926 42.11180 45.51348 
405 52.07501 18.77440 66.34159 17.42906 12.63759 36.62097 
406 78.27664 18.72960 81.56630 34.43088 23.23546 59.79255 
407 89.51227 56.09680 88.58128 54.62353 46.17967 76.53200 
408 12.64918 100.0000 47.33497 38.63481 62.11210 28.96045 
409 26.46631 100.0000 48.40190 40.81510 63.39867 30.46928 
410 70.59316 100.0000 50.91005 58.05807 73.10452 35.16468 
411 39.51686 74.46466 29.44877 24.83839 35.34383 14.77937 
412 41.72068 82.21072 45.28450 32.19840 45.53028 25.36843 
413 0.00000 45.20861 61.40517 11.69237 15.26438 27.97570 
414 0.00000 65.96197 86.09968 26.33429 34.89145 62.15024 
415 0.00000 75.85501 100.0000 39.17121 51.21544 98.14898 
416 17.04524 86.24308 100.0000 47.30860 63.65279 101.9920 
417 9.514637 23.81561 10.26120 2.584645 3.620779 2.252224 
418 32.81193 24.39530 13.65396 5.911418 5.556156 3.244021 
419 34.25066 30.70260 100.0000 26.47869 24.30323 93.75362 
420 74.71352 7.151117 90.59148 33.31749 22.52295 73.75643 
421 83.35317 26.47880 93.17882 43.16852 30.82723 80.87971 
422 90.40086 49.21221 95.93707 56.15742 45.54115 90.26290 
423 59.82794 21.78836 57.10690 19.19496 13.70385 28.12636 
424 60.98759 42.89803 58.66353 24.60688 21.75099 31.40517 
425 66.67506 63.04408 60.38801 35.12870 36.18400 36.19159 
426 40.43150 22.51501 5.699820 7.204152 5.876566 2.203784 
427 42.17398 42.82526 6.523047 11.43436 12.57888 3.929586 
428 44.57254 53.98194 8.082645 15.64720 18.75118 5.526392 
429 46.02596 61.74743 36.10026 21.34703 26.32637 16.04166 
430 64.92156 71.97992 55.19117 37.91819 42.55416 33.04628 
431 73.37830 71.63550 76.65029 47.93847 49.79501 59.08265 
432 6.061097 43.17772 73.16402 14.38531 16.79275 42.26974 
433 20.99764 55.75779 76.52695 21.24899 25.86042 51.23052 
434 57.79402 70.75193 82.48430 40.97141 45.57645 65.72648 
435 64.57694 78.15342 89.70123 51.15967 56.97012 80.19102 
436 90.80612 80.08070 89.91506 68.94732 68.20728 82.87128 
437 85.78829 11.10356 51.79366 30.12097 18.22957 23.94835 
438 95.91129 15.36500 55.54412 39.22074 23.80113 28.44788 
439 65.59626 9.567950 11.22285 14.98270 8.960947 3.316221 
440 75.46157 28.81059 13.54798 22.56947 15.46300 4.971823 
441 89.13102 34.44648 26.18624 33.98182 23.38463 10.09156 
442 93.70490 36.77657 37.86030 38.85515 26.94184 16.31276 
443 40.99879 3.292624 9.808020 5.751767 3.555833 2.119066 
444 52.46253 23.07957 9.383404 11.26766 8.379647 3.069276 
445 58.03639 29.02893 21.58604 14.90844 11.50511 6.401171 
446 76.39263 43.97683 42.75861 30.04750 24.36865 19.12424 
447 32.24546 25.04066 24.04267 6.442527 6.120391 6.044013 
448 40.81024 29.46758 43.24260 11.51389 10.28588 16.34381 
449 19.71216 10.70531 49.26488 5.644846 4.477719 18.09437 
450 21.31192 23.76361 69.53705 11.26416 10.13224 38.18464 
451 21.69278 28.53058 88.88035 18.06201 16.34249 67.34162 
452 26.04051 37.56466 95.02075 23.60202 23.07707 81.56378 
453 88.56985 76.95142 99.78662 70.63386 69.77912 102.8281 
454 7.730723 64.87703 9.196771 12.91642 22.05684 6.492839 
455 32.32248 72.03762 15.12629 20.24761 30.54802 9.474672 
456 70.99992 81.80941 23.99833 41.62255 49.24339 15.55695 
457 10.08645 9.936579 68.92412 8.439998 6.761548 36.04380 
458 21.09281 8.849139 76.92364 11.69537 9.036206 47.13298 
459 32.17523 10.98206 76.37729 13.77769 10.38227 48.46564 
460 53.54960 9.332154 78.40527 20.35500 14.13436 52.90291 
461 59.89715 11.06435 89.91746 26.70221 18.93874 71.31587 
462 60.55175 23.37045 97.68674 32.38299 25.37719 89.30313 
463 0.00000 74.02677 13.67004 17.36772 29.90726 8.841634 
464 8.623796 77.07067 21.08638 20.25754 34.05282 11.38607 
465 19.28950 84.06926 30.56247 26.18434 42.33374 16.33436 
466 40.70890 89.03650 34.98663 34.97921 51.27535 20.53385 
467 0.00000 0.00000 0.00000 0.463440 0.465747 0.660934 
468 0.00000 0.00000 0.00000 0.463251 0.465512 0.660420 
469 28.52856 8.436217 21.04252 3.935471 2.875819 4.264153 
470 79.33675 7.298913 41.17422 23.98359 14.30202 15.70116 
471 88.12642 24.45087 46.62555 33.70458 21.69000 20.99495 
472 83.80375 0.316953 25.91923 23.91435 13.65487 7.802707 
473 90.84486 13.27779 37.24758 32.39346 19.26424 14.15702 
474 92.43169 54.26078 38.67623 43.81658 35.63728 18.82412 
475 78.23808 64.03829 9.245866 35.02233 33.74383 8.435668 
476 88.51245 65.72169 20.10229 44.26254 40.82289 11.89840 
477 91.97338 89.60214 19.20591 59.45889 63.82085 16.40784 
478 92.82009 92.83309 30.09896 64.40497 70.18790 21.28607 
479 14.63559 24.73871 0.436904 2.782401 3.672313 1.437286 
480 33.55015 42.83473 31.37892 11.13086 13.18000 10.26912 
481 47.58165 43.57963 77.80216 24.39420 23.08953 53.18651 
482 63.32746 54.03005 86.53492 37.37990 35.39491 70.30661 
483 52.04604 5.783124 42.19890 11.56886 7.365435 14.71120 
484 70.04742 4.404462 62.55930 22.53932 14.13162 33.70674 
485 70.36635 14.39880 73.12583 26.61982 17.70503 46.69979 
486 70.03496 27.05530 79.91244 30.74559 22.33381 56.91942 
487 11.89847 65.64563 56.06108 19.29506 28.40167 28.43088 
488 39.47073 70.27569 55.75669 26.82089 35.50643 31.03677 
489 67.33162 93.16594 58.12753 53.51833 66.31555 40.38001 
490 11.25544 39.48491 87.42972 18.44761 19.18392 63.81860 
491 17.72042 46.73767 91.37781 23.24388 25.18878 74.04752 
492 15.18301 54.75339 93.01746 26.24600 30.48942 77.62814 
493 0.00000 51.76315 87.86855 21.06300 25.07672 62.30785 
494 17.55086 66.35781 90.31660 30.24750 37.98186 74.35209 
495 11.61302 71.26552 68.27947 24.83847 35.58156 41.64362 
496 39.34019 79.08705 72.75388 36.01386 47.44876 52.46545 
497 7.964982 67.15490 33.98185 16.24867 26.36908 14.18377 
498 11.29448 90.11784 38.60516 30.51837 49.78831 21.54969 
499 25.39700 95.17070 38.59345 36.10532 56.97777 23.39776 
500 9.133845 11.66555 9.632605 1.441009 1.597130 1.736750 
501 35.30577 14.13861 15.60021 5.428996 4.047024 3.271142 
502 39.41467 18.58397 48.56885 9.941990 7.638112 19.02297 
503 41.76918 21.88542 60.89583 13.50077 10.67427 30.35902 
504 45.88966 30.84600 67.94330 17.71908 15.08743 38.68815 
505 45.29984 30.72156 91.54517 25.19513 21.31666 74.89070 
506 9.304597 8.810588 91.44576 15.30371 12.40255 69.53551 
507 8.449454 19.78685 95.13029 18.11398 15.84617 78.64212 
508 26.88622 65.14741 96.13824 34.19552 40.82614 88.10327 
509 26.12876 81.84523 96.78462 44.02485 57.31923 93.74829 
510 10.71643 2.233755 42.75719 3.480907 2.686775 13.08705 
511 23.87970 23.48811 52.30406 8.054365 7.505163 21.32670 
512 29.69829 23.02274 61.25136 10.91110 9.483830 30.24520 
513 29.92967 35.46647 62.37033 13.15474 13.24510 31.78661 
514 10.33786 9.792157 31.29109 2.532864 2.287766 7.253451 
515 27.56227 15.93629 42.02166 6.180220 5.101228 13.85065 
516 41.39294 40.68066 46.18818 14.44611 14.91869 19.15356 
517 75.15633 3.343724 10.06246 18.55059 10.65838 3.293512 
518 88.53435 9.155648 9.176757 28.11706 16.15465 3.868440 
519 97.36649 10.24253 17.55109 34.98246 20.11153 6.063250 
520 100.0000 27.25127 34.52253 41.85434 26.24356 13.62466 
521 11.57849 44.34576 1.323554 6.061087 9.735097 2.959311 
522 7.789741 80.49807 5.434269 20.35143 34.77821 8.983235 
523 23.49919 94.31016 8.455112 31.18330 51.04385 12.56732 
524 9.740509 91.73349 10.16517 27.95772 47.59360 12.07774 
525 33.32596 90.86349 7.623644 30.93061 48.39753 11.94195 
526 44.94167 91.13483 8.747308 34.32361 50.42434 12.43484 
527 57.87513 96.37072 8.244115 43.08846 59.31788 14.02997 
528 8.410217 95.52274 27.97354 32.78129 54.84397 17.47157 
529 13.81675 95.18181 54.85073 37.09994 58.36276 34.08230 
530 27.72202 95.72859 82.71832 46.89095 66.36074 68.10255 
531 20.70794 7.883802 93.81454 17.58722 14.05901 75.74678 
532 50.69157 9.241259 99.80224 27.65808 21.65678 92.17289 
533 43.54056 92.28719 23.11474 36.25078 53.54455 16.07554 
534 59.98618 93.61653 23.41611 44.13881 59.46484 17.37653 
535 62.59970 65.80100 8.560956 27.39586 30.74891 8.056578 
536 74.94998 74.69370 32.37407 40.42195 44.18957 17.78975 
537 77.46155 83.62152 37.89713 48.46974 54.64743 22.90610 
538 21.55940 38.24190 8.240723 6.238227 8.552756 3.242028 
539 27.04234 39.34612 20.42292 7.932512 10.08890 5.838710 
540 92.98622 60.44460 29.88026 45.68179 39.20782 14.78734 
541 95.70490 62.03479 49.83248 51.06287 43.70871 28.29831 
542 7.827557 3.781199 16.82600 1.264072 1.122953 2.787809 
543 18.15645 5.075778 25.50357 2.615843 2.013772 5.281320 
544 59.84717 5.174697 25.97602 12.72420 7.653171 6.827550 
545 69.25226 13.44432 37.29014 19.04616 11.89321 12.91415 
546 74.92224 29.59758 47.21579 25.85336 18.35577 20.45179 
547 83.72537 39.54907 59.86106 36.16778 27.17955 33.52315 
548 100.0000 51.16856 67.11401 54.79408 42.01480 45.23842 
549 0.00000 0.00000 0.00000 0.461615 0.463480 0.657948 
550 91.09243 91.57670 7.361349 59.36061 64.60643 14.25369 
551 100.0000 100.0000 100.0000 95.14635 100.1784 108.7529 
552 32.62716 58.07573 46.07028 17.62594 23.13798 20.78206 
553 54.05113 63.34378 61.44979 29.55455 33.14460 36.59017 
554 62.29609 79.89530 78.57629 46.97104 54.56011 62.23308 
555 18.77063 48.60342 43.60360 11.53591 15.80538 17.14321 
556 21.52896 57.06021 59.30326 17.75975 23.55779 31.20198 
557 47.85874 57.74729 81.78640 30.60393 32.52713 62.10977 
558 55.67393 61.57836 91.56673 38.98655 40.42451 79.87621 
559 26.98253 41.95382 70.95405 16.53718 17.75719 42.72201 
560 32.59222 49.37622 77.31167 21.50179 23.53191 51.87353 
561 90.25561 36.67293 10.40827 34.28552 23.63712 5.715843 
562 91.70106 44.56591 22.28626 38.31179 28.62477 9.710305 
563 76.51654 10.67351 1.355964 20.07795 11.77222 2.611004 
564 93.41196 20.52828 6.897115 32.96252 19.84477 4.247599 
565 92.92492 22.20008 25.26377 34.22622 21.10176 8.799311 
566 91.29595 29.43412 56.20847 38.57677 25.73269 29.45891 
567 91.96108 45.76786 56.62684 43.41386 33.07608 31.85233 
568 88.72733 45.41256 44.29897 39.02947 29.85543 21.13398 
569 86.99997 67.09450 45.08850 46.41659 43.65390 24.92959 
570 86.50774 77.96947 51.56746 53.52242 54.65618 32.13750 
571 25.00736 24.42977 99.43247 23.32621 21.04662 91.96534 
572 41.36940 44.75245 100.0000 32.19432 31.98757 95.56995 
573 0.612958 10.48505 22.15261 1.508278 1.627795 4.048535 
574 6.202279 36.57161 23.04358 5.145897 7.821576 5.780871 
575 13.83992 67.52337 24.95170 16.04651 26.22695 10.97133 
576 12.39046 77.23413 34.58244 21.95886 35.79762 16.49670 
577 56.42546 89.87814 51.91327 43.79996 57.58244 32.66600 
578 94.04828 70.60419 8.428909 48.59304 44.76668 10.11242 
579 95.94456 74.08372 20.99682 53.39933 50.34406 13.89381 
580 8.761801 22.75198 23.07784 3.021255 3.885494 4.861955 
581 24.05523 25.90678 32.90058 5.792833 6.108470 9.120342 
582 25.14951 52.02105 34.90560 12.53040 17.34074 12.92859 
583 24.82433 76.26937 59.02941 27.18121 39.30294 34.82566 
584 30.65748 87.77681 75.02633 39.63633 55.58944 55.84703 
585 43.37791 95.77142 78.40528 49.97856 67.72017 63.88903 
586 78.55570 47.14915 22.41516 29.95067 24.73683 9.338172 
587 85.35639 53.12321 51.93709 40.48396 34.01192 27.58939 
588 63.13916 26.87820 6.807886 16.03454 11.47026 3.326138 
589 71.17811 34.64697 21.17749 22.33208 16.81957 7.154524 
590 79.18721 37.84711 29.88886 28.49587 21.34006 11.16462 
591 65.87909 43.64767 20.96466 21.99383 19.18963 7.841721 
592 66.46422 51.48480 54.17146 28.70244 26.90904 28.03725 
593 71.33945 55.10684 65.12331 35.49844 32.91086 40.27454 
594 82.10159 55.37155 65.61811 42.08185 36.62185 41.89951 
595 93.15953 65.95878 91.76864 63.65616 57.04514 84.12526 
596 49.80570 24.56459 51.09857 14.52666 11.29634 21.83598 
597 64.58089 34.88605 51.60300 22.81594 18.16519 24.06047 
598 65.18468 44.82746 75.11499 31.37708 27.26321 51.41896 
599 67.45229 56.04860 74.82485 36.63568 34.64719 53.01300 
600 66.48803 66.98289 92.40030 47.19917 48.37995 83.45705 
601 29.84648 81.75379 83.13754 37.94977 50.75710 66.00821 
602 44.66206 88.34242 93.63428 51.12867 64.97997 88.46469 
603 64.63526 7.584269 48.46464 17.54648 10.93439 20.02777 
604 74.70159 13.58035 52.05316 24.04655 15.12611 23.92988 
605 78.81962 11.64561 63.86385 28.42985 17.89188 35.48680 
606 79.13906 35.14141 68.68417 34.53924 25.52812 43.09755 
607 87.47978 46.93317 77.51730 45.84469 36.26014 56.97587 
608 0.807974 86.44886 29.99956 26.09058 43.97132 15.78912 
609 31.21564 90.77279 47.06714 34.97154 52.91761 27.65560 
610 39.06990 90.52395 54.35532 38.57425 55.32480 34.30552 
611 61.94539 98.96225 76.94027 59.04883 74.64264 63.46668 
612 0.887132 15.71795 73.22916 8.908665 7.657799 38.30407 
613 28.64911 13.58841 88.73743 17.23018 13.68293 66.87822 
614 33.17286 23.55805 91.26295 20.67689 17.37868 73.54584 
615 42.87876 24.49518 99.30082 27.11217 23.04584 91.74446 
616 88.95122 48.29329 8.772813 36.41453 28.29764 6.613176 
617 99.09683 53.85112 9.913194 46.23828 35.67083 7.913184 
618 74.16622 93.02149 8.112971 49.18143 60.14669 13.99000 
619 82.59814 96.83030 28.17038 59.70377 70.42070 20.88922 
620 22.73505 60.37981 2.715693 12.18440 19.05766 5.225405 
621 40.68382 77.49223 8.568614 24.61403 35.57202 9.381835 
622 49.59126 81.11811 66.69282 38.66376 49.28211 45.59811 
623 24.57350 68.39890 72.17611 26.38905 35.15357 47.30044 
624 41.81188 69.45535 77.20814 32.53764 39.61408 55.95772 
625 49.93179 77.91472 86.13680 43.19060 51.98485 72.64562 
626 2.524919 48.04721 53.94338 11.56407 16.14271 22.58559 
627 11.29648 53.42180 54.91880 14.14056 19.57625 25.72524 
628 35.73390 83.76427 17.24243 27.94267 42.58220 12.53046 
629 57.78486 83.74364 21.11950 36.05773 47.22062 14.23844 
630 64.62826 91.61382 33.26751 45.97785 59.26366 21.33692 
631 71.96716 72.00753 14.13899 35.68148 38.95447 10.58717 
632 80.74004 75.05786 21.76934 43.28589 45.29328 13.92895 
633 94.02014 74.30675 40.88169 54.41154 52.08047 23.90456 
634 93.31967 78.05812 60.78708 60.30772 59.05730 41.78224 
635 71.40719 23.84873 58.58939 25.18893 17.38014 29.69894 
636 76.61104 24.05136 69.61177 30.59008 20.99968 42.98128 
637 40.96471 1.270562 68.75971 12.94102 8.935944 38.22071 
638 44.92211 11.49374 72.14349 15.66540 11.19715 42.81061 
639 61.71187 36.51556 80.07986 28.84275 23.62243 57.16124 
640 73.28655 51.23303 90.36734 43.21409 38.01169 77.17545 
641 75.76598 77.20771 89.83036 56.88889 59.75219 81.07671 
642 9.970740 35.53991 32.89061 6.000488 8.355469 9.347518 
643 9.844703 42.24049 45.89549 9.243704 12.57535 17.34700 
644 9.901656 52.27472 66.21070 15.78404 20.50459 35.74330 
645 52.84500 38.65044 6.207777 14.17509 12.95795 3.828024 
646 76.60059 39.71199 8.432365 25.64574 19.55024 5.076144 
647 90.09511 59.53981 9.620002 41.23423 35.06717 8.318798 
648 92.93484 80.82312 5.354826 53.40342 53.17692 11.66369 
649 51.87278 56.65187 12.95777 19.26459 22.05893 6.868031 
650 69.13602 59.71953 16.36337 28.51974 28.51377 8.750846 
651 74.17719 81.08242 57.26755 48.29312 53.92668 37.31400 
652 88.27989 95.29725 74.11889 71.95819 79.18486 61.01062 
653 22.68975 33.86002 53.68341 9.903532 10.69145 23.24728 
654 27.25611 51.70093 66.20313 18.27680 22.01414 37.81573 
655 42.80735 56.53949 70.45921 25.11326 28.15061 45.24846 
656 55.13942 60.86522 74.67155 32.52256 34.69981 51.92372 
657 82.86275 74.93581 2.893466 42.30084 42.93459 9.663299 
658 91.19161 79.81369 27.60364 54.18689 54.98163 17.45603 
659 100.0000 88.27885 57.33535 71.74351 72.37647 40.86614 
660 43.89448 9.715164 4.154340 6.709796 4.355963 1.693738 
661 55.82718 12.19924 7.571726 10.94886 6.882398 2.428142 
662 55.99639 14.46865 20.25530 11.85858 7.734628 5.100443 
663 68.97931 22.51743 26.76506 19.38606 12.95041 8.233548 
664 78.48857 56.97522 29.95183 34.16023 31.28311 13.52353 
665 78.77488 65.40682 35.98681 38.92331 38.39187 18.50963 
666 39.44929 65.21983 8.619193 18.18982 24.99269 7.039641 
667 50.55253 68.40622 8.898710 23.36262 29.86024 8.086760 
668 61.27487 77.02738 5.469844 31.58853 38.64142 9.524617 
669 74.30466 81.42655 8.368293 41.44366 47.39375 11.42510 
670 82.04780 88.74618 13.50524 51.50843 58.52773 14.31806 
671 39.19636 7.841149 84.83316 17.59020 12.97262 60.44179 
672 48.24573 8.808178 90.09174 22.34745 16.41298 71.09127 
673 89.22833 9.992179 91.06183 43.26874 28.25981 75.75785 
674 89.81081 4.271486 46.02741 31.01638 18.17836 19.59145 
675 90.05697 8.112736 62.44943 35.29635 21.35451 34.65898 
676 99.63435 10.78944 74.90771 46.60000 28.59187 51.80537 
677 39.20080 7.390040 46.38400 8.568865 5.859258 16.90376 
678 43.82415 8.687976 58.25556 11.85052 8.170013 27.13306 
679 54.96784 7.880628 60.10793 15.58793 10.27625 29.37044 
680 58.98103 7.901549 70.32555 19.52277 12.99855 41.37711 
681 73.86416 21.41273 4.795553 20.29690 13.02068 3.236825 
682 83.82979 28.38773 2.755929 27.68001 18.00815 3.860367 
683 96.90771 30.33423 16.06344 38.34371 24.55130 6.677771 
684 53.12987 1.523162 10.41804 9.008894 5.312238 2.502264 
685 54.78179 21.28031 41.08769 14.23189 10.31313 14.92467 
686 62.09195 29.99932 40.89704 18.89544 14.43524 15.89450 
687 29.43619 58.51957 11.52142 13.43312 19.51578 6.269708 
688 48.07915 68.49853 20.70041 23.79883 30.93963 10.81124 
689 74.41944 92.16236 21.72898 50.26947 61.29096 17.07784 
690 86.26166 100.0000 51.74804 68.01231 78.65046 36.73574 
691 60.51618 50.20597 8.482073 20.15531 19.78294 5.559606 
692 67.22730 54.41612 28.26138 26.82019 26.10502 11.92194 
693 70.61430 64.49498 47.22815 35.31072 36.18304 24.64619 
694 79.69016 70.68577 57.45870 45.50369 45.96093 35.76770 
695 44.70069 36.44477 58.27493 16.54667 15.34642 28.91714 
696 54.65671 39.64378 67.33075 22.82442 20.16179 39.95720 
697 5.172322 76.87447 43.47987 22.34975 35.99841 20.89940 
698 9.269301 88.36400 62.75497 33.31179 51.34799 39.04562 
699 8.868995 96.88094 71.52186 41.16103 62.56884 50.13921 
700 91.18804 33.66871 67.19774 42.11705 29.32611 42.37401 
701 94.36303 45.03849 86.12066 53.60522 40.78506 70.94654 
702 20.30452 28.12624 23.02869 4.873464 5.771366 5.464679 
703 25.60617 35.13823 31.32492 7.632143 9.072506 9.212922 
704 33.80921 36.52403 38.71914 10.48948 11.24717 13.67281 
705 37.13420 38.47038 76.76133 19.47602 18.63857 50.73052 
706 24.90800 4.438152 59.03793 7.857165 5.751855 27.11114 
707 42.32037 21.97758 72.97736 16.46994 13.02155 44.70871 
708 51.35691 23.88597 82.86586 22.75203 17.61904 58.90837 
709 79.85947 41.28908 90.87287 43.67812 34.47276 77.14166 
710 49.60409 11.31088 29.68480 10.02472 6.583703 8.118773 
711 59.62802 10.38433 38.38606 14.53912 9.182125 13.25903 
712 59.89522 25.90378 71.84623 23.13876 17.31562 44.23370 
713 73.85276 38.24989 78.86548 34.99416 27.54448 56.72521 
714 34.35609 8.796742 35.23112 6.248601 4.376300 9.926322 
715 34.36898 21.72394 35.25097 7.537969 6.426475 10.42690 
716 54.97059 72.96714 60.99179 34.61017 41.54827 38.45496 
717 63.95815 77.38807 67.99755 43.14534 49.62992 47.13265 
718 4.617174 10.55325 44.48927 3.615535 3.177405 13.66765 
719 6.518448 18.72461 52.91922 5.623487 5.383981 20.05511 
720 22.90439 5.797561 39.14110 4.437707 3.302392 11.60742 
721 48.11209 75.83821 37.78624 29.23409 38.71842 19.23108 
722 88.64797 85.19438 38.52120 56.89704 60.31369 24.29926 
723 95.66491 90.58138 45.84852 66.88585 70.56322 30.87749 
724 58.07337 31.34864 90.58312 29.63444 23.98984 73.78622 
725 57.22286 85.37793 94.71105 54.59493 64.96127 91.99558 
726 11.32000 23.67522 76.35225 11.87146 10.80852 46.26137 
727 12.60341 35.08139 76.75957 14.09034 14.58226 47.39349 
728 7.799509 91.86407 81.67044 40.53950 59.42170 62.97071 
729 10.39620 92.40601 91.90561 45.43076 64.04531 81.61030 
730 59.95354 94.85026 91.39106 60.84617 74.81552 86.95715 
731 6.837090 20.90955 35.79322 3.676600 4.152998 9.579868 
732 18.02205 30.90297 41.19680 6.875689 7.917242 13.84020 
733 24.83355 33.26168 79.30131 16.17082 15.47334 52.49048 
734 29.91596 50.08384 89.08342 25.19276 27.12137 70.50929 
735 38.23971 75.73036 90.90456 39.67451 48.95907 79.28452 
736 46.34089 97.39781 90.96146 56.43243 74.03648 84.53175 
737 4.481467 35.72897 4.163211 3.976226 6.519215 2.396988 
738 9.748631 40.20136 12.08459 5.615472 8.912680 3.842153 
739 15.70446 46.54546 23.60102 8.528407 12.89136 7.334839 
740 25.55751 61.98706 25.44693 15.13025 22.74646 10.30028 
741 37.78761 65.11189 25.11106 19.18444 26.61891 11.21644 
742 64.67431 69.68126 24.74923 31.77855 36.37319 13.16418 
743 38.29806 50.06196 60.70241 19.07146 21.32961 32.76575 
744 38.57555 59.45482 90.08629 31.39391 34.92704 75.20623 
745 0.00000 26.70198 79.13480 11.70446 11.16552 46.26532 
746 38.42455 28.85671 82.10268 19.32687 16.54621 58.02757 
747 45.38548 41.14364 90.71144 27.24035 25.20389 73.58624 
748 54.21340 49.37421 90.90106 33.05867 31.61740 76.05575 
749 55.84461 68.26679 43.80418 29.49568 35.25025 22.36916 
750 65.62449 75.26016 44.15119 37.98382 43.98947 24.70447 
751 72.36897 86.63767 48.45435 48.99463 58.00685 30.54975 
752 78.47843 91.84969 59.77173 58.67705 67.77676 42.27841 
753 89.85093 90.89282 60.34221 65.95045 71.39903 43.49389 
754 93.36024 91.41682 81.27629 75.16826 78.89509 71.19034 
755 39.01857 52.07687 36.03656 15.81622 19.23989 14.34554 
756 44.64860 54.04442 47.47377 19.79623 22.73145 22.03926 
757 20.90384 12.33143 66.16921 9.068974 7.176242 33.77181 
758 29.94473 21.32125 78.69663 15.01898 12.48683 51.36059 
759 0.00000 27.89226 58.15608 7.196990 7.904315 23.30399 
760 9.531745 39.70882 57.90396 10.31285 12.57732 26.23251 
761 10.12292 59.09421 75.04545 20.81083 27.13920 47.69723 
762 8.090167 79.06987 76.03272 31.09673 44.73751 52.68507 
763 9.849731 80.31665 93.53964 38.48915 52.05468 82.86433 
764 3.545129 74.37167 86.40222 31.16388 42.60086 65.30083 
765 23.82568 75.23484 88.78270 35.42341 46.20367 74.18065 
766 90.83679 91.70298 92.47563 77.91154 82.08924 90.49185 
767 25.36579 7.706539 8.549915 2.887897 2.136310 1.676147 
768 24.10956 17.90227 7.181087 3.322359 3.190428 1.785027 
769 26.33514 77.12876 6.739902 20.89637 33.28577 8.774155 
770 33.13083 82.89988 27.80937 27.67040 42.05689 15.37350 
771 51.39936 91.49903 41.01424 41.38684 57.15324 25.22065 
772 10.11642 56.65898 22.22757 11.02330 17.88838 8.196104 
773 8.358679 59.49254 43.28708 14.14219 21.61832 17.91445 
774 32.69995 59.06512 60.63838 21.02615 26.35969 33.70738 
775 43.74990 67.28098 66.26643 29.05003 35.64065 41.67277 
776 90.95622 67.65937 69.88798 55.40254 50.88302 49.97017 
777 92.99097 76.56808 78.16596 64.11728 61.65051 63.54908 
778 50.67777 44.84646 41.37615 17.84382 17.95464 16.85145 
779 68.69415 54.00499 41.84998 29.09530 27.59234 19.43350 
780 74.88411 84.99308 68.22728 53.36945 60.30004 50.06369 
781 78.22802 92.37606 77.16990 63.34595 72.33102 63.86989 
782 8.909358 8.156258 54.83216 5.376735 4.344486 21.80303 
783 9.164937 24.75660 65.67261 8.950962 8.688204 32.13548 
784 6.328266 66.54244 79.34876 25.00077 33.79920 53.94469 
785 7.006882 68.04862 93.55604 31.63429 40.61851 79.91119 
786 65.56816 7.178531 79.24701 25.24642 16.79477 54.67798 
787 70.22482 18.30837 88.16115 31.93130 22.43088 69.99348 
788 93.89283 24.18869 89.74901 48.43779 32.81720 74.88861 
789 78.91160 7.500626 76.57700 31.20757 19.93428 52.24077 
790 89.97034 5.849821 76.22105 37.98419 23.59701 52.24293 
791 89.12207 17.89710 79.85667 40.76477 26.45250 58.01936 
792 90.13131 34.83896 88.35380 48.17076 34.93849 72.91378 
793 7.708435 86.69173 48.03161 29.19889 46.88785 26.28594 
794 23.26678 89.43256 54.99191 34.04878 51.93596 33.55086 
795 25.38996 90.57861 65.34197 37.68771 55.55802 44.17194 
796 39.32192 91.96299 66.66322 42.46262 59.61689 47.22518 
797 23.55388 39.69371 45.76566 10.07198 12.01388 17.90737 
798 30.49970 49.89483 53.25891 15.63958 18.98514 25.07428 
799 91.82507 57.73508 62.16552 48.88191 41.01582 39.22455 
800 41.64020 5.314224 24.23769 6.635425 4.265644 5.567081 
801 48.48775 23.58317 31.76279 11.26946 8.751237 9.530248 
802 49.78483 34.11439 34.90908 14.09249 12.55303 11.94699 
803 56.61003 52.41899 50.55338 24.24726 24.75049 24.96477 
804 1.072892 24.41355 17.45498 2.547364 3.720154 3.475088 
805 5.344667 29.59053 42.48558 5.528811 6.835836 13.29758 
806 0.00000 64.59232 56.29988 18.00182 27.15740 26.73075 
807 2.731008 74.10670 64.32423 24.37149 36.54925 36.07792 
808 15.95511 82.27630 84.15135 36.51771 50.79324 66.45835 
809 74.11732 45.45482 67.07725 34.07869 28.31869 42.19244 
810 78.31501 60.96885 77.67962 45.44238 42.19089 58.13916 
811 77.77359 62.39678 91.68392 50.93612 47.84364 82.10533 
812 39.69398 48.64749 22.32875 13.32134 16.06856 7.892345 
813 47.83738 54.96007 26.96615 18.56224 21.66799 10.81848 
814 57.47533 60.67305 29.52962 24.88733 27.91396 13.04090 
815 100.0000 100.0000 100.0000 95.10543 100.0892 108.7523 
816 21.95305 28.37128 12.57361 4.548347 5.390878 2.987780 
817 21.57236 49.42367 13.42217 9.245301 13.70375 5.209043 
818 22.57077 63.34159 39.27706 16.75053 24.88598 16.74595 
819 36.37421 70.92249 41.58991 23.77758 33.08244 20.21336 
820 49.00194 88.95471 59.37225 41.99633 56.66208 39.41414 
821 57.12284 91.23471 67.22091 49.00390 63.06324 49.22150 
822 68.50094 89.58222 86.07374 58.80252 68.45908 76.04762 
823 77.75535 91.10377 92.70062 68.24022 76.25941 89.15335 
824 71.82842 10.81339 21.52232 18.68630 11.21674 6.064939 
825 79.01283 11.13852 30.17755 22.92208 13.67781 9.382157 
826 89.30891 24.69306 36.12776 32.89046 21.03779 14.14170 
827 47.07701 32.59641 12.58084 10.92385 9.814451 3.904063 
828 47.22887 35.90414 23.68695 12.47429 11.88878 7.110347 
829 35.51194 34.01656 8.922740 7.932840 8.497546 3.213018 
830 56.03318 45.10658 24.98196 18.15285 17.63769 9.011223 
831 59.14380 48.01124 35.60154 21.51998 20.81750 14.27494 
832 7.861661 2.563052 77.81491 9.996153 7.724748 45.57722 
833 10.43316 13.48746 81.51021 12.13295 9.917812 52.68065 
834 74.53660 18.51723 97.95306 38.63075 28.09549 90.62925 
835 15.14036 73.20494 48.06729 22.09444 34.11141 24.18752 
836 30.04333 78.99035 48.14483 27.68570 40.61986 26.23886 
END_DATA
CAL    

DESCRIPTOR "Argyll Device Calibration State"
ORIGINATOR "Argyll dispread"
CREATED "Mon Jun 13 17:51:54 2022"
DEVICE_CLASS "DISPLAY"
COLOR_REP "RGB"

NUMBER_OF_FIELDS 4
BEGIN_DATA_FORMAT
RGB_I RGB_R RGB_G RGB_B 
END_DATA_FORMAT

NUMBER_OF_SETS 256
BEGIN_DATA
0.00000 0.00000 0.00000 0.00000 
0.00392157 0.0147171 0.0141230 0.0109616 
0.00784314 0.0278199 0.0265853 0.0208177 
0.0117647 0.0395220 0.0376626 0.0297274 
0.0156863 0.0499041 0.0476145 0.0378228 
0.0196078 0.0591908 0.0566197 0.0452471 
0.0235294 0.0675873 0.0648010 0.0521214 
0.0274510 0.0753179 0.0722849 0.0585511 
0.0313725 0.0825397 0.0791903 0.0646170 
0.0352941 0.0893565 0.0856348 0.0703935 
0.0392157 0.0958171 0.0917107 0.0759400 
0.0431373 0.101923 0.0974583 0.0812895 
0.0470588 0.107705 0.102922 0.0864688 
0.0509804 0.113211 0.108138 0.0915045 
0.0549020 0.118464 0.113157 0.0964098 
0.0588235 0.123494 0.118012 0.101192 
0.0627451 0.128344 0.122715 0.105847 
0.0666667 0.133023 0.127300 0.110377 
0.0705882 0.137528 0.131783 0.114787 
0.0745098 0.141882 0.136158 0.119108 
0.0784314 0.146136 0.140406 0.123353 
0.0823529 0.150295 0.144541 0.127519 
0.0862745 0.154359 0.148592 0.131596 
0.0901961 0.158328 0.152557 0.135594 
0.0941176 0.162204 0.156437 0.139510 
0.0980392 0.165993 0.160238 0.143348 
0.101961 0.169723 0.163950 0.147099 
0.105882 0.173413 0.167569 0.150764 
0.109804 0.177042 0.171108 0.154348 
0.113725 0.180610 0.174602 0.157873 
0.117647 0.184116 0.178052 0.161334 
0.121569 0.187567 0.181455 0.164732 
0.125490 0.190965 0.184811 0.168071 
0.129412 0.194308 0.188119 0.171352 
0.133333 0.197595 0.191385 0.174573 
0.137255 0.200831 0.194610 0.177740 
0.141176 0.204021 0.197791 0.180853 
0.145098 0.207169 0.200920 0.183915 
0.149020 0.210307 0.204003 0.186931 
0.152941 0.213442 0.207042 0.189902 
0.156863 0.216573 0.210037 0.192825 
0.160784 0.219692 0.213016 0.195703 
0.164706 0.222798 0.215987 0.198536 
0.168627 0.225894 0.218949 0.201332 
0.172549 0.228984 0.221902 0.204095 
0.176471 0.232074 0.224844 0.206825 
0.180392 0.235168 0.227774 0.209519 
0.184314 0.238270 0.230694 0.212177 
0.188235 0.241384 0.233607 0.214798 
0.192157 0.244507 0.236518 0.217390 
0.196078 0.247635 0.239437 0.219951 
0.200000 0.250754 0.242374 0.222483 
0.203922 0.253864 0.245327 0.224985 
0.207843 0.256965 0.248300 0.227460 
0.211765 0.260063 0.251285 0.229941 
0.215686 0.263160 0.254267 0.232436 
0.219608 0.266249 0.257249 0.234940 
0.223529 0.269320 0.260232 0.237449 
0.227451 0.272375 0.263221 0.239963 
0.231373 0.275434 0.266218 0.242483 
0.235294 0.278501 0.269220 0.245010 
0.239216 0.281577 0.272215 0.247545 
0.243137 0.284661 0.275200 0.250084 
0.247059 0.287751 0.278188 0.252627 
0.250980 0.290824 0.281186 0.255180 
0.254902 0.293868 0.284188 0.257744 
0.258824 0.296883 0.287197 0.260323 
0.262745 0.299876 0.290212 0.262919 
0.266667 0.302852 0.293236 0.265532 
0.270588 0.305813 0.296252 0.268150 
0.274510 0.308762 0.299258 0.270770 
0.278431 0.311704 0.302253 0.273392 
0.282353 0.314635 0.305241 0.276021 
0.286275 0.317558 0.308220 0.278655 
0.290196 0.320476 0.311187 0.281299 
0.294118 0.323395 0.314146 0.283953 
0.298039 0.326320 0.317102 0.286615 
0.301961 0.329250 0.320049 0.289280 
0.305882 0.332190 0.322985 0.291949 
0.309804 0.335144 0.325910 0.294627 
0.313725 0.338110 0.328836 0.297313 
0.317647 0.341084 0.331767 0.300005 
0.321569 0.344064 0.334705 0.302701 
0.325490 0.347043 0.337655 0.305402 
0.329412 0.350005 0.340619 0.308107 
0.333333 0.352944 0.343596 0.310817 
0.337255 0.355861 0.346587 0.313518 
0.341176 0.358762 0.349590 0.316202 
0.345098 0.361650 0.352595 0.318870 
0.349020 0.364524 0.355581 0.321522 
0.352941 0.367386 0.358547 0.324159 
0.356863 0.370243 0.361492 0.326782 
0.360784 0.373095 0.364421 0.329392 
0.364706 0.375946 0.367334 0.331990 
0.368627 0.378794 0.370233 0.334581 
0.372549 0.381639 0.373121 0.337169 
0.376471 0.384479 0.376012 0.339750 
0.380392 0.387309 0.378906 0.342325 
0.384314 0.390132 0.381799 0.344894 
0.388235 0.392950 0.384690 0.347457 
0.392157 0.395763 0.387579 0.350022 
0.396078 0.398564 0.390460 0.352592 
0.400000 0.401348 0.393332 0.355167 
0.403922 0.404112 0.396196 0.357748 
0.407843 0.406857 0.399066 0.360338 
0.411765 0.409588 0.401941 0.362939 
0.415686 0.412308 0.404810 0.365554 
0.419608 0.415038 0.407670 0.368182 
0.423529 0.417789 0.410519 0.370823 
0.427451 0.420561 0.413354 0.373463 
0.431373 0.423353 0.416178 0.376096 
0.435294 0.426167 0.418993 0.378720 
0.439216 0.429015 0.421817 0.381335 
0.443137 0.431904 0.424655 0.383942 
0.447059 0.434810 0.427506 0.386543 
0.450980 0.437728 0.430372 0.389143 
0.454902 0.440657 0.433252 0.391741 
0.458824 0.443597 0.436163 0.394336 
0.462745 0.446546 0.439110 0.396931 
0.466667 0.449499 0.442067 0.399527 
0.470588 0.452453 0.445030 0.402121 
0.474510 0.455404 0.447997 0.404714 
0.478431 0.458352 0.450970 0.407308 
0.482353 0.461296 0.453948 0.409905 
0.486275 0.464239 0.456932 0.412507 
0.490196 0.467184 0.459922 0.415110 
0.494118 0.470128 0.462915 0.417714 
0.498039 0.473073 0.465916 0.420320 
0.501961 0.476023 0.468928 0.422933 
0.505882 0.478981 0.471955 0.425558 
0.509804 0.481948 0.474997 0.428196 
0.513725 0.484927 0.478048 0.430840 
0.517647 0.487918 0.481106 0.433490 
0.521569 0.490917 0.484172 0.436149 
0.525490 0.493914 0.487256 0.438818 
0.529412 0.496906 0.490354 0.441495 
0.533333 0.499902 0.493461 0.444181 
0.537255 0.502905 0.496576 0.446873 
0.541176 0.505915 0.499689 0.449571 
0.545098 0.508930 0.502788 0.452276 
0.549020 0.511950 0.505878 0.454987 
0.552941 0.514984 0.508963 0.457714 
0.556863 0.518027 0.512046 0.460485 
0.560784 0.521075 0.515124 0.463304 
0.564706 0.524127 0.518192 0.466147 
0.568627 0.527186 0.521252 0.469001 
0.572549 0.530245 0.524324 0.471864 
0.576471 0.533298 0.527410 0.474737 
0.580392 0.536347 0.530507 0.477620 
0.584314 0.539400 0.533613 0.480513 
0.588235 0.542460 0.536724 0.483415 
0.592157 0.545522 0.539827 0.486330 
0.596078 0.548589 0.542922 0.489258 
0.600000 0.551668 0.546016 0.492199 
0.603922 0.554767 0.549120 0.495154 
0.607843 0.557887 0.552232 0.498118 
0.611765 0.561030 0.555355 0.501094 
0.615686 0.564194 0.558502 0.504087 
0.619608 0.567376 0.561673 0.507098 
0.623529 0.570577 0.564875 0.510122 
0.627451 0.573791 0.568110 0.513163 
0.631373 0.576996 0.571382 0.516221 
0.635294 0.580181 0.574694 0.519294 
0.639216 0.583323 0.578048 0.522379 
0.643137 0.586417 0.581437 0.525480 
0.647059 0.589466 0.584834 0.528600 
0.650980 0.592475 0.588212 0.531729 
0.654902 0.595454 0.591556 0.534854 
0.658824 0.598406 0.594866 0.537974 
0.662745 0.601337 0.598141 0.541095 
0.666667 0.604252 0.601380 0.544221 
0.670588 0.607152 0.604587 0.547354 
0.674510 0.610037 0.607765 0.550490 
0.678431 0.612913 0.610919 0.553625 
0.682353 0.615784 0.614051 0.556762 
0.686275 0.618650 0.617161 0.559902 
0.690196 0.621513 0.620248 0.563042 
0.694118 0.624371 0.623325 0.566184 
0.698039 0.627221 0.626396 0.569330 
0.701961 0.630066 0.629460 0.572475 
0.705882 0.632900 0.632514 0.575615 
0.709804 0.635718 0.635552 0.578753 
0.713725 0.638520 0.638574 0.581896 
0.717647 0.641310 0.641580 0.585055 
0.721569 0.644110 0.644567 0.588230 
0.725490 0.646919 0.647535 0.591423 
0.729412 0.649739 0.650489 0.594642 
0.733333 0.652570 0.653455 0.597889 
0.737255 0.655415 0.656435 0.601175 
0.741176 0.658276 0.659431 0.604503 
0.745098 0.661148 0.662441 0.607880 
0.749020 0.664026 0.665471 0.611308 
0.752941 0.666908 0.668521 0.614788 
0.756863 0.669796 0.671583 0.618314 
0.760784 0.672692 0.674648 0.621832 
0.764706 0.675601 0.677714 0.625330 
0.768627 0.678531 0.680792 0.628809 
0.772549 0.681482 0.683882 0.632269 
0.776471 0.684451 0.686987 0.635710 
0.780392 0.687433 0.690113 0.639129 
0.784314 0.690407 0.693260 0.642534 
0.788235 0.693370 0.696428 0.645931 
0.792157 0.696321 0.699589 0.649322 
0.796078 0.699260 0.702735 0.652714 
0.800000 0.702187 0.705868 0.656109 
0.803922 0.705106 0.708986 0.659506 
0.807843 0.708014 0.712086 0.662910 
0.811765 0.710910 0.715182 0.666321 
0.815686 0.713798 0.718274 0.669735 
0.819608 0.716689 0.721361 0.673155 
0.823529 0.719591 0.724445 0.676577 
0.827451 0.722500 0.727540 0.680000 
0.831373 0.725413 0.730647 0.683432 
0.835294 0.728332 0.733768 0.686871 
0.839216 0.731261 0.736903 0.690316 
0.843137 0.734201 0.740058 0.693765 
0.847059 0.737146 0.743234 0.697218 
0.850980 0.740084 0.746428 0.700727 
0.854902 0.743011 0.749622 0.704311 
0.858824 0.745925 0.752811 0.707972 
0.862745 0.748826 0.755993 0.711713 
0.866667 0.751720 0.759165 0.715532 
0.870588 0.754612 0.762333 0.719417 
0.874510 0.757507 0.765510 0.723368 
0.878431 0.760405 0.768694 0.727381 
0.882353 0.763306 0.771890 0.731470 
0.886275 0.766208 0.775095 0.735652 
0.890196 0.769113 0.778304 0.739937 
0.894118 0.772027 0.781518 0.744307 
0.898039 0.774957 0.784743 0.748727 
0.901961 0.777901 0.787983 0.753200 
0.905882 0.780858 0.791236 0.757741 
0.909804 0.783825 0.794493 0.762368 
0.913725 0.786803 0.797756 0.767086 
0.917647 0.789796 0.801031 0.771897 
0.921569 0.792797 0.804315 0.776809 
0.925490 0.795801 0.807596 0.781855 
0.929412 0.798815 0.810881 0.787050 
0.933333 0.801837 0.814174 0.792424 
0.937255 0.804871 0.817472 0.797973 
0.941176 0.807917 0.820771 0.803651 
0.945098 0.810977 0.824066 0.809476 
0.949020 0.814047 0.827354 0.815484 
0.952941 0.817128 0.830632 0.821722 
0.956863 0.820224 0.833898 0.828206 
0.960784 0.823336 0.837147 0.834941 
0.964706 0.826470 0.840379 0.841979 
0.968627 0.829626 0.843593 0.849349 
0.972549 0.832807 0.846787 0.857098 
0.976471 0.836014 0.849962 0.865261 
0.980392 0.839246 0.853118 0.873891 
0.984314 0.842503 0.856256 0.883037 
0.988235 0.845787 0.859375 0.892733 
0.992157 0.849097 0.862476 0.902998 
0.996078 0.852434 0.865559 0.913878 
1.000000 0.855798 0.868624 0.925431 
END_DATA
