CTI3   

DESCRIPTOR "Argyll Calibration Target chart information 3"
ORIGINATOR "Argyll dispread"
CREATED "Sun Apr  3 18:44:54 2022"
DEVICE_CLASS "DISPLAY"
COLOR_REP "RGB_XYZ"
TARGET_INSTRUMENT "X-Rite i1 DisplayPro, ColorMunki Display"
DISPLAY_TYPE_REFRESH "NO"
DISPLAY_TYPE_BASE_ID "1"
INSTRUMENT_TYPE_SPECTRAL "NO"
LUMINANCE_XYZ_CDM2 "74.377549 78.230754 84.667994"
NORMALIZED_TO_Y_100 "YES"
VIDEO_LUT_CALIBRATION_POSSIBLE "YES"

NUMBER_OF_FIELDS 7
BEGIN_DATA_FORMAT
SAMPLE_ID RGB_R RGB_G RGB_B XYZ_X XYZ_Y XYZ_Z 
END_DATA_FORMAT

NUMBER_OF_SETS 836
BEGIN_DATA
1 100.0000 100.0000 100.0000 95.07456 100.0000 108.2285 
2 39.60025 0.00000 0.00000 5.408736 2.742764 0.289173 
3 51.23213 0.00000 0.00000 9.472050 4.754292 0.346156 
4 59.22988 19.30410 31.34008 15.64859 9.298262 8.476246 
5 0.00000 86.90899 20.26359 26.08875 53.08112 10.23431 
6 13.46706 88.08354 22.36019 27.70883 55.10122 11.18712 
7 17.30515 100.0000 31.78814 37.23985 73.40262 17.54388 
8 0.00000 0.00000 71.98058 8.217683 3.042836 46.42296 
9 16.81811 0.00000 82.98448 12.36427 4.682357 64.63089 
10 18.32074 17.01863 100.0000 19.27945 8.628999 98.07647 
11 51.26895 19.59589 100.0000 27.94675 13.34758 98.31548 
12 53.46364 35.70716 100.0000 31.24076 19.04583 98.82412 
13 66.49950 44.72248 100.0000 40.12546 26.92607 99.56251 
14 76.18808 100.0000 100.0000 75.12772 90.14053 107.7588 
15 88.33274 100.0000 100.0000 83.98776 94.34246 107.5211 
16 82.70985 0.00000 16.16562 28.19564 13.96253 2.789221 
17 89.34815 10.59635 25.96354 34.33889 17.54210 6.188799 
18 100.0000 13.56827 29.08798 44.83533 23.03015 7.920940 
19 100.0000 0.00000 12.96134 43.19309 21.42578 2.355836 
20 100.0000 0.00000 25.12398 43.84135 21.66243 5.961717 
21 100.0000 0.00000 37.57789 45.05609 22.08498 12.48848 
22 100.0000 11.92838 46.13284 46.32702 23.34953 18.99947 
23 100.0000 0.00000 49.48357 46.64757 22.66422 21.68966 
24 100.0000 0.00000 62.16930 48.99033 23.51970 35.20777 
25 100.0000 13.03572 65.23003 50.17442 24.88426 38.79273 
26 100.0000 27.04558 75.05191 54.21888 28.90491 52.88614 
27 47.18709 68.58071 88.56511 36.15746 39.76366 78.97628 
28 49.64192 83.41522 100.0000 49.71172 59.21334 104.2926 
29 12.65826 13.07018 20.21387 1.869850 1.768470 3.682626 
30 24.12105 15.93196 29.06903 4.030641 3.121453 7.075215 
31 56.34936 50.78912 77.37506 29.33680 25.51524 57.20951 
32 67.23541 64.46371 81.46435 41.13491 39.37488 65.76145 
33 75.72254 0.00000 0.00000 22.43136 11.17736 0.528926 
34 78.35240 15.83880 14.40839 25.63896 13.86906 2.551452 
35 85.53729 48.55999 31.36508 38.31441 29.76322 10.38420 
36 100.0000 75.97514 69.34435 69.44857 63.01438 49.36433 
37 100.0000 88.16955 72.07236 77.68764 78.90143 55.36119 
38 33.73300 46.19677 12.01769 10.36328 14.93129 3.263724 
39 34.09378 61.36455 34.05495 17.19840 26.45843 12.43295 
40 46.22300 65.98225 48.06293 24.74985 33.25039 23.28296 
41 48.41618 77.13905 53.79299 32.18714 46.03829 30.00638 
42 74.27290 74.80885 64.90496 46.55534 50.77338 42.87520 
43 83.81905 74.96399 71.78588 54.90905 54.68003 51.94506 
44 10.16290 52.34590 10.63778 8.771848 17.07490 3.429853 
45 15.42191 57.75234 32.42043 12.55470 22.01598 11.17878 
46 74.54351 94.04903 39.59229 54.43043 74.53733 21.40294 
47 50.92142 100.0000 0.00000 44.44097 77.21683 9.788438 
48 52.78558 100.0000 18.78953 45.87019 77.92371 12.73659 
49 61.13795 100.0000 36.53564 51.10705 80.31548 20.43598 
50 75.65487 65.93456 25.08945 37.17242 39.74250 9.144247 
51 77.26992 74.92251 46.54489 44.99572 50.31765 23.52816 
52 84.39015 100.0000 83.63850 75.55737 91.15498 75.73809 
53 0.00000 0.00000 58.12631 5.104041 1.921046 28.64831 
54 16.76053 0.00000 65.77843 7.790442 3.019740 38.43225 
55 50.56612 0.00000 67.02538 16.13989 7.115315 40.37855 
56 67.10130 33.89736 67.54001 27.51952 17.77979 41.77401 
57 89.92376 49.48012 67.94767 47.83577 34.18373 43.72111 
58 90.97280 61.02353 78.38309 55.99879 44.69204 60.79615 
59 100.0000 84.69534 85.44626 79.17406 75.56520 76.75381 
60 50.89880 45.65960 0.00000 15.46797 16.91687 1.902685 
61 68.11784 56.58264 0.00000 27.53746 28.62841 2.991960 
62 84.87260 66.79420 0.00000 43.05107 42.94712 4.269557 
63 85.45413 73.30975 34.16682 48.77113 51.08194 14.48050 
64 39.04833 31.63763 31.31424 9.652079 9.110893 8.796546 
65 56.03732 31.90629 57.75326 19.67094 13.58973 29.96021 
66 74.44068 34.57700 58.47445 30.37140 19.68867 30.98308 
67 86.50602 35.47889 49.37512 38.01700 23.91480 22.27148 
68 100.0000 70.14006 55.25882 63.39614 55.68547 31.63312 
69 39.69235 54.21608 0.00000 14.20077 20.59234 2.578347 
70 39.71916 58.22579 16.82288 16.32092 24.19662 5.410541 
71 54.48774 70.75773 30.55848 28.46806 39.02430 12.10180 
72 58.71336 73.08348 16.00871 30.57963 41.88426 7.083557 
73 66.49591 86.08630 14.63228 42.37065 60.23326 8.896110 
74 62.72091 100.0000 0.00000 50.09232 79.98673 9.864974 
75 67.68572 100.0000 14.98621 53.13393 81.51486 11.76967 
76 0.00000 100.0000 25.62919 35.78050 72.84264 14.58812 
77 0.00000 100.0000 38.02026 36.78949 73.24085 20.82690 
78 0.00000 100.0000 75.94552 44.05034 75.87866 62.08375 
79 0.00000 100.0000 87.84604 47.47563 77.03152 82.33158 
80 37.11003 100.0000 86.73327 52.25642 79.43137 80.91862 
81 63.49847 100.0000 100.0000 67.68077 86.48901 107.5240 
82 0.00000 14.68076 63.37174 6.880901 3.700152 35.20131 
83 17.24656 33.72193 64.64874 10.79985 9.575698 37.84522 
84 20.05510 43.47235 81.38039 17.88191 16.16020 63.53440 
85 25.31735 59.98208 86.35683 25.76707 28.79699 73.50620 
86 72.94196 0.00000 54.44580 25.10704 11.90535 25.80946 
87 82.90934 0.00000 68.66359 35.06103 16.42150 42.72907 
88 85.05265 33.46712 78.52929 42.80372 24.84547 58.31808 
89 84.45809 35.81130 100.0000 49.85456 28.22162 99.29374 
90 28.75042 28.45392 42.81728 7.849256 7.234430 15.78666 
91 36.41243 29.13117 54.36619 11.41270 8.848395 26.05420 
92 83.34103 18.38844 0.00000 29.48318 16.14103 0.865262 
93 86.94392 23.38573 15.24379 33.20134 18.87492 3.078645 
94 100.0000 35.50364 25.35955 47.48565 29.07893 7.083409 
95 73.98115 32.32891 0.00000 24.54220 16.60137 1.260150 
96 72.64776 49.85877 12.40381 28.13627 25.42787 3.856766 
97 82.21272 56.43318 18.85218 37.79111 33.88633 6.143730 
98 81.65949 56.86986 40.99098 39.40159 34.72420 17.04671 
99 26.00899 25.19997 0.00000 4.053960 4.731210 0.696407 
100 42.49659 30.48608 0.00000 8.925946 8.457004 0.974976 
101 58.19295 30.34185 0.00000 15.14580 11.43064 1.044590 
102 62.55268 41.98756 43.91662 23.00915 19.05282 17.58249 
103 61.72667 82.56300 57.92722 42.44551 56.23817 35.62093 
104 65.59553 88.24871 72.87807 51.19250 65.65237 55.59690 
105 67.03653 42.99951 0.00000 22.62655 19.46496 1.844904 
106 82.07782 50.94878 0.00000 34.88396 29.21836 2.603646 
107 100.0000 59.86939 0.00000 53.91434 43.88937 3.736150 
108 20.44230 44.53381 58.51505 12.56508 14.76608 31.14790 
109 23.12720 78.71220 71.02063 30.15812 46.02285 50.80234 
110 40.71736 84.86659 84.65692 41.81177 57.04665 74.16512 
111 6.892000 28.87877 89.81449 16.18545 10.07407 77.38026 
112 17.02608 32.46044 100.0000 21.22646 13.06244 98.34412 
113 26.49390 46.56775 100.0000 26.09231 20.98879 99.80816 
114 33.01190 59.06240 100.0000 31.91819 30.76032 100.8139 
115 85.34946 68.01783 100.0000 61.82627 51.43242 102.2798 
116 33.29984 13.73491 65.53381 11.02690 5.571756 38.10910 
117 33.16889 37.94790 87.12711 20.71432 15.14009 73.40275 
118 19.83291 19.14958 82.49872 13.69207 7.040228 63.94012 
119 42.51813 18.30156 85.15475 19.33656 9.585625 68.88302 
120 0.00000 0.00000 35.00399 1.766505 0.719012 9.582377 
121 0.00000 0.00000 46.60894 3.186927 1.231348 17.70242 
122 0.00000 0.00000 100.0000 17.22852 6.220979 97.82813 
123 0.00000 14.30480 100.0000 17.79042 7.557554 97.60244 
124 83.60841 17.63563 100.0000 46.58290 22.24030 98.54687 
125 28.83372 68.51270 0.00000 17.68163 31.86585 4.156383 
126 43.78753 70.22084 0.00000 22.37730 35.60947 4.437415 
127 68.29998 71.63987 0.00000 34.35599 42.71925 4.802616 
128 86.70879 77.03611 13.07096 50.21116 54.95550 7.244269 
129 0.00000 100.0000 51.43547 38.58411 73.77322 31.43940 
130 0.00000 100.0000 63.45529 40.93124 74.56452 44.57610 
131 17.15728 100.0000 64.85883 42.39296 75.44353 46.37597 
132 0.00000 76.57760 54.97787 23.45618 41.00777 30.38718 
133 13.36635 78.01031 60.75120 26.30336 43.75202 37.43684 
134 36.72225 80.93584 61.10711 32.03180 49.15477 38.51245 
135 49.36478 87.86501 74.94998 43.90887 61.70278 58.18460 
136 100.0000 46.91551 0.00000 49.33050 34.35160 2.511646 
137 100.0000 73.82830 0.00000 60.31388 57.12651 5.436981 
138 100.0000 82.65319 17.53441 66.04936 68.45188 9.583861 
139 32.47542 0.00000 73.47048 12.07471 4.901771 48.85573 
140 32.96186 0.00000 87.76967 16.42581 6.474024 73.34215 
141 0.00000 58.69114 0.00000 10.56280 21.63325 2.983930 
142 0.00000 73.43892 0.00000 17.00813 35.35433 4.754803 
143 16.26577 75.77015 12.31725 19.73242 38.98134 6.497288 
144 19.34610 95.15631 74.12665 41.39496 68.96183 58.26380 
145 17.72841 100.0000 82.67740 47.19897 77.13872 73.85584 
146 100.0000 0.00000 0.00000 42.85225 21.30142 0.834974 
147 100.0000 15.25927 0.00000 43.78121 22.81087 1.017040 
148 100.0000 100.0000 12.77605 78.11212 93.87558 11.79749 
149 100.0000 100.0000 25.99514 78.78505 94.15401 15.77553 
150 100.0000 100.0000 39.00696 79.90376 94.46236 22.73660 
151 11.64634 46.81457 100.0000 24.28240 20.10741 99.57289 
152 17.46290 60.32972 100.0000 29.64421 30.33829 100.5850 
153 0.00000 13.63272 31.78752 2.059731 1.831176 8.060050 
154 15.64724 18.05992 41.67025 4.401753 3.407868 14.40893 
155 15.88626 18.60571 58.61824 7.166323 4.487781 29.78357 
156 33.08727 29.30574 70.90423 14.07883 9.840523 46.01785 
157 51.87441 34.42160 80.37457 23.68592 15.72006 61.14827 
158 62.66517 42.76003 89.46326 33.74357 23.37622 77.89316 
159 100.0000 47.73994 35.34141 51.54742 35.92451 12.83633 
160 100.0000 61.48909 39.14058 56.99840 46.38483 16.61759 
161 100.0000 62.96474 67.77765 62.66188 49.71033 45.50322 
162 22.41416 84.30502 15.05054 25.83097 50.20125 8.458540 
163 25.48234 92.51702 23.52421 32.29117 62.11758 12.44903 
164 18.49407 84.51092 0.00000 25.04017 49.96598 6.590091 
165 37.26505 84.42178 0.00000 28.45713 51.29567 6.573493 
166 55.17329 86.35178 9.315094 36.43873 57.26765 7.914134 
167 46.77176 0.00000 48.60097 11.09780 5.095406 20.03690 
168 64.61241 0.00000 85.80290 28.07263 12.29339 70.51601 
169 100.0000 35.79719 86.82542 58.92032 33.31478 73.15830 
170 100.0000 100.0000 100.0000 95.07456 100.0000 108.2285 
171 34.34916 0.00000 58.40938 9.169086 3.916914 29.60213 
172 49.11542 0.00000 81.88925 19.46933 8.219379 62.98218 
173 60.82752 20.44088 81.95037 26.11642 13.42748 63.23514 
174 0.00000 0.00000 22.54997 0.818264 0.377367 4.164202 
175 0.00000 14.93718 84.30231 12.44220 5.743554 66.75990 
176 0.00000 38.48700 84.76511 16.12032 13.21356 68.46072 
177 14.99034 24.67029 30.44088 3.962376 4.551313 8.073151 
178 19.08052 42.16557 33.38938 8.079988 11.97488 10.33217 
179 32.92956 45.84548 43.19587 12.50667 15.59106 17.05201 
180 44.40247 59.35368 57.11846 22.85071 27.72042 31.53300 
181 88.23262 0.00000 0.00000 32.03456 15.91523 0.664034 
182 100.0000 19.52784 15.31497 44.51249 23.76837 3.180818 
183 0.00000 61.18269 17.09986 11.92814 23.98788 5.671067 
184 0.00000 73.61788 28.04295 18.52705 36.64800 10.98361 
185 14.32593 34.36936 0.00000 4.119852 7.169229 1.083324 
186 31.92997 38.52218 0.00000 7.579179 10.20910 1.343357 
187 48.46209 44.14088 16.41574 14.58564 16.13497 4.106986 
188 58.69833 55.87186 20.54185 22.98715 26.10371 6.242012 
189 64.22686 81.25523 34.12466 39.28247 53.52164 15.47200 
190 0.00000 100.0000 100.0000 52.05033 78.74251 107.2893 
191 13.31213 100.0000 100.0000 52.67644 79.05022 107.2892 
192 51.65206 100.0000 100.0000 61.76928 83.33732 107.0512 
193 0.00000 0.00000 86.07768 12.31763 4.502001 69.81044 
194 13.73917 0.00000 100.0000 17.92702 6.566273 97.82809 
195 27.86799 0.00000 100.0000 19.84560 7.499042 98.06333 
196 36.04760 14.63226 100.0000 22.30727 9.794891 98.07321 
197 82.75928 51.75202 100.0000 53.29101 36.94496 100.5363 
198 100.0000 62.06723 100.0000 72.12781 52.40362 101.7699 
199 0.00000 13.25978 0.00000 0.666773 1.249363 0.358919 
200 0.00000 16.56132 15.93866 1.293937 1.927952 2.508038 
201 0.00000 19.08297 45.32613 4.096590 3.383468 17.08524 
202 11.95633 30.53426 51.55691 7.172927 7.249448 22.99503 
203 10.11717 54.39444 84.73442 21.30421 23.18493 69.70679 
204 30.17553 74.26940 100.0000 38.27960 44.82896 102.7991 
205 35.10017 87.47520 100.0000 47.34497 62.01020 104.8006 
206 0.00000 68.59460 42.46298 17.42822 31.78914 18.33812 
207 0.00000 88.54075 54.54183 30.85351 56.51762 31.81919 
208 35.92781 100.0000 58.72912 44.61707 76.66487 39.52449 
209 47.25901 100.0000 66.88481 50.17729 78.98927 49.83811 
210 100.0000 100.0000 76.21651 87.15245 97.19314 63.72970 
211 100.0000 100.0000 88.23162 90.72196 98.44399 84.44876 
212 0.00000 0.00000 0.00000 0.126899 0.128342 0.214696 
213 0.00000 100.0000 0.00000 34.85783 72.46285 9.642904 
214 13.25232 100.0000 0.00000 35.48840 72.77070 9.663841 
215 26.35892 100.0000 0.00000 37.16328 73.46172 9.667926 
216 37.84788 100.0000 15.28843 40.32089 75.18030 11.70463 
217 83.33075 83.20448 0.00000 51.15287 61.39757 6.706615 
218 100.0000 87.11890 0.00000 68.32254 73.83082 7.603657 
219 100.0000 87.41775 35.64511 70.41064 75.26738 18.07676 
220 0.00000 100.0000 12.97366 35.13574 72.61962 11.08310 
221 18.25722 100.0000 15.79657 36.45488 73.29169 11.73815 
222 32.26536 100.0000 29.88943 39.59858 74.48092 16.72482 
223 47.02167 100.0000 32.35213 44.34522 77.07449 17.94896 
224 83.09754 21.98039 57.15719 34.48984 18.62766 29.45359 
225 100.0000 38.71015 60.14152 52.97924 32.28582 33.67328 
226 62.60084 0.00000 14.77228 15.16758 7.525693 2.297647 
227 69.52708 0.00000 26.33339 19.50047 9.589418 6.026557 
228 80.67027 23.41040 25.77600 28.79481 16.63204 6.366677 
229 82.93123 34.17888 38.44137 33.36898 21.42552 13.45213 
230 46.62696 14.21053 14.20462 8.727813 5.315366 2.187971 
231 64.67254 21.02926 16.09213 17.66030 10.74665 2.943038 
232 63.71593 90.15166 43.81891 45.91569 65.98857 23.68198 
233 72.11886 100.0000 71.81606 63.68918 85.65003 56.66663 
234 0.00000 85.31656 38.49415 26.52738 51.50039 18.13103 
235 29.32492 85.04493 37.83544 29.15762 52.23714 17.97940 
236 18.75546 83.69498 45.17352 27.44555 49.98902 23.08845 
237 39.71451 100.0000 44.83130 43.16682 76.06529 26.09121 
238 53.46206 100.0000 50.22947 49.27407 79.13796 30.90146 
239 61.29149 36.70163 12.07622 18.23353 15.06625 2.782101 
240 70.59899 44.09408 33.41001 26.84427 21.91284 10.83946 
241 77.03252 50.01429 80.01035 41.32507 30.99928 61.67918 
242 56.59801 0.00000 100.0000 28.86007 11.99044 98.06311 
243 65.88235 14.22587 100.0000 34.26054 15.72211 98.07265 
244 68.82295 30.08031 100.0000 38.07544 20.69594 98.80763 
245 32.33635 69.52512 64.97723 25.37586 35.87107 41.68751 
246 61.06984 100.0000 64.51991 55.75354 81.95106 46.82551 
247 84.38367 100.0000 66.36802 70.94331 89.37257 49.36693 
248 0.00000 86.28806 0.00000 24.85438 51.53211 6.850548 
249 39.06448 100.0000 0.00000 40.35123 75.09547 9.730896 
250 75.44238 100.0000 0.00000 57.42297 83.44779 9.966371 
251 84.80219 100.0000 18.22610 64.82287 87.29261 12.77761 
252 80.66900 86.99690 27.79472 52.92957 66.27917 13.60559 
253 83.99580 88.31019 49.15016 58.67479 70.11950 27.90471 
254 13.49141 54.24358 0.00000 9.359518 18.19652 2.508796 
255 19.62993 63.97199 14.86388 14.35447 27.01387 5.477040 
256 24.79450 73.26767 37.43308 21.32258 37.56164 15.84155 
257 0.00000 57.62416 31.51175 11.48698 21.52305 10.40432 
258 0.00000 57.73029 65.05709 16.71632 23.56640 39.59467 
259 16.13038 62.85113 65.97015 19.96244 28.38501 41.65117 
260 14.51731 72.93889 100.0000 35.24633 42.25844 102.3183 
261 0.00000 27.76291 100.0000 19.43738 10.87366 98.33210 
262 0.00000 40.36481 100.0000 22.07750 16.14823 99.07535 
263 0.00000 52.79651 100.0000 25.69026 23.92546 99.60184 
264 0.00000 64.05806 100.0000 29.89741 32.85212 100.8427 
265 0.00000 87.85105 100.0000 43.34323 60.46749 104.8049 
266 26.39815 100.0000 100.0000 54.48842 79.93236 107.5245 
267 39.62078 100.0000 100.0000 57.73536 81.51349 107.5240 
268 36.32667 33.84852 20.10447 8.400085 9.103581 4.373870 
269 45.45748 44.15223 31.92488 14.53657 16.03621 9.836765 
270 66.51915 65.73880 36.83116 32.47893 37.22129 14.93215 
271 88.62107 66.03864 57.66535 51.22879 46.24308 33.22330 
272 71.94324 0.00000 100.0000 37.12811 16.07545 98.06258 
273 85.80314 0.00000 100.0000 47.18371 21.04691 98.53298 
274 100.0000 0.00000 100.0000 60.15185 27.42331 98.76737 
275 100.0000 12.35580 100.0000 60.71522 28.53599 98.77509 
276 52.43716 81.59915 0.00000 32.17684 50.32363 6.176006 
277 66.08243 86.92823 0.00000 42.24690 60.93736 7.208926 
278 26.08374 50.66313 0.00000 9.830141 16.58065 2.218568 
279 27.88913 51.33911 23.54339 11.36638 17.91678 6.697647 
280 55.29276 57.12973 40.22718 23.79182 27.25846 16.28932 
281 57.05378 71.07941 100.0000 45.46776 45.85746 102.0686 
282 71.58764 74.13374 100.0000 55.39505 53.27605 103.0334 
283 0.00000 26.52956 0.00000 2.026350 4.072579 0.722675 
284 0.00000 43.33748 0.00000 5.431632 11.14606 1.633729 
285 0.00000 48.40964 13.26211 7.116971 14.24398 3.511969 
286 0.00000 70.00161 72.91768 24.20815 35.81958 51.91269 
287 0.00000 83.04072 84.73785 34.98409 52.23956 73.44573 
288 25.31275 90.33600 91.32336 44.03470 63.67057 87.63990 
289 55.91010 62.85146 0.00000 23.88823 30.71553 3.564454 
290 87.83837 100.0000 0.00000 66.69837 88.16871 10.10063 
291 100.0000 100.0000 0.00000 77.81476 93.71818 10.26586 
292 43.97591 15.17106 39.06744 9.750279 5.726257 12.83344 
293 53.64583 14.07486 50.92454 15.13142 8.030271 22.30111 
294 65.97239 15.32140 63.01021 23.41522 11.98809 35.69469 
295 42.36621 0.00000 32.20316 7.653951 3.659654 8.525697 
296 71.61582 0.00000 40.50770 22.34491 10.81188 13.81179 
297 79.31824 19.07655 40.66636 28.54331 15.57052 14.40263 
298 100.0000 38.12990 46.16050 50.30664 31.00769 19.98001 
299 100.0000 53.60079 52.04029 55.72088 40.80462 26.56079 
300 63.28228 0.00000 0.00000 15.02359 7.502875 0.423363 
301 65.64566 15.37070 0.00000 17.10199 9.607888 0.624756 
302 87.32463 36.98225 0.00000 35.37503 23.40173 1.646042 
303 100.0000 51.88718 20.04915 51.55151 38.04073 6.328001 
304 42.82173 0.00000 100.0000 23.45322 9.292313 98.06320 
305 42.67225 69.20694 100.0000 38.88480 40.94919 101.8182 
306 0.00000 34.36456 69.13414 10.77603 9.737711 42.79171 
307 16.44087 46.30047 72.10290 15.50696 16.58579 48.71288 
308 0.00000 51.89150 75.55073 17.12982 20.04163 53.68296 
309 33.29994 60.29047 76.16881 24.41522 28.75266 56.08503 
310 60.54806 36.70519 30.73560 19.02297 15.35145 8.906874 
311 71.60900 100.0000 29.11160 56.30338 82.79828 16.67076 
312 83.60279 100.0000 37.41158 65.48602 87.40773 21.22155 
313 100.0000 100.0000 50.99960 81.62705 95.17918 32.60062 
314 100.0000 100.0000 63.74805 84.28711 96.16723 46.79491 
315 100.0000 30.95596 0.00000 45.63999 26.73691 1.523632 
316 100.0000 39.30669 12.04695 47.46408 30.39974 3.389511 
317 100.0000 37.10525 100.0000 64.24236 35.88999 99.76904 
318 100.0000 49.18696 100.0000 67.47965 42.52919 100.5222 
319 30.79928 0.00000 42.76197 5.884176 2.628527 15.11550 
320 30.40956 12.12202 52.51563 7.860094 4.173918 23.67641 
321 0.00000 28.16263 30.54523 3.592447 5.164380 7.985967 
322 0.00000 35.70465 47.75927 6.950801 8.717920 19.72117 
323 17.94605 69.73810 81.11057 27.50260 36.85873 65.33054 
324 30.95855 69.36922 81.70070 29.58749 37.49272 66.03323 
325 21.70922 16.18716 17.77121 2.940214 2.674933 3.023183 
326 47.00695 24.01655 19.89020 10.16670 7.544965 4.012533 
327 72.08975 30.60291 35.49896 24.94214 16.29096 11.39094 
328 72.26817 32.58699 89.61428 36.87861 21.27748 78.09455 
329 34.58316 40.46558 54.50816 13.25661 13.41165 26.63019 
330 41.60980 42.81108 67.33388 18.49595 16.66725 42.09613 
331 42.17973 50.27743 86.60907 26.48305 23.37999 73.68800 
332 51.80703 54.96156 100.0000 36.30874 30.33865 100.5540 
333 68.20700 59.46731 100.0000 46.35642 38.22792 101.0516 
334 0.00000 84.64064 69.59266 31.29738 52.33094 48.73617 
335 15.43547 86.11541 74.79978 34.88782 55.60466 57.69892 
336 100.0000 64.77507 14.03232 56.40195 48.41168 6.058267 
337 100.0000 70.00104 29.04482 59.71589 54.16663 11.90127 
338 100.0000 80.37766 46.48938 67.51189 66.56178 24.89504 
339 49.41061 0.00000 19.53229 9.209622 4.550645 3.495972 
340 57.39567 0.00000 34.67754 13.74772 6.653628 9.808792 
341 59.24997 0.00000 54.03624 17.39365 8.082089 25.26388 
342 66.52084 0.00000 70.46022 24.61394 11.19518 45.18528 
343 81.90055 0.00000 84.17031 38.96000 17.73460 67.68989 
344 100.0000 16.02096 84.26467 55.52077 27.25290 68.17226 
345 100.0000 69.10670 84.09920 69.92263 56.97701 71.44306 
346 100.0000 75.10245 100.0000 78.41369 65.69163 103.2771 
347 0.00000 41.22772 37.50706 6.858227 10.86582 12.44320 
348 0.00000 52.16652 47.22170 11.33802 18.08882 20.11339 
349 33.68973 100.0000 72.93697 47.14503 77.48569 57.60977 
350 52.84571 100.0000 81.76317 56.21233 81.68772 71.73665 
351 67.24835 100.0000 86.06537 64.62243 85.67390 79.97707 
352 0.00000 32.41340 14.92565 3.366736 6.319072 2.787031 
353 0.00000 44.81686 25.70701 6.775516 12.41463 6.863863 
354 7.806245 49.68744 36.13424 9.497192 16.05875 12.36927 
355 19.61339 58.72041 49.10346 15.49850 24.06334 22.99893 
356 25.67566 67.13047 53.14750 20.58685 31.94427 27.99053 
357 52.57871 73.47158 73.48034 36.11984 44.07133 53.58244 
358 55.29043 86.88130 83.56741 48.51352 62.74450 72.77389 
359 65.45377 86.69676 100.0000 59.08285 66.99566 105.0278 
360 85.07663 0.00000 35.09703 31.24278 15.27837 10.50276 
361 100.0000 24.32638 49.55806 48.16331 26.06038 22.08161 
362 100.0000 25.55669 61.71662 50.69833 27.28526 34.82305 
363 34.41609 0.00000 14.05352 4.330095 2.169522 1.968741 
364 39.41941 16.50027 26.22704 7.327427 4.838861 6.000007 
365 13.24230 0.00000 0.00000 0.781543 0.452294 0.223958 
366 14.52923 0.00000 33.41823 2.413128 1.054352 8.933062 
367 17.40448 0.00000 50.03120 4.796090 1.947359 21.14487 
368 49.15440 45.77677 54.10601 19.23393 18.68758 26.75464 
369 49.99648 50.70371 64.71415 23.09026 22.70152 39.16943 
370 60.26172 53.65648 64.36012 28.99243 27.30033 39.16300 
371 63.56932 66.53253 70.48209 37.24137 39.46823 48.82440 
372 74.01133 81.47585 80.16168 54.19971 60.29309 65.65959 
373 100.0000 0.00000 75.28509 52.07822 24.62601 52.85633 
374 100.0000 0.00000 87.60739 55.72968 25.94430 73.57564 
375 100.0000 24.69141 100.0000 62.03360 31.20492 99.26476 
376 83.67552 70.40334 83.98852 56.14953 51.56151 71.22135 
377 83.76460 84.77934 100.0000 70.08729 70.40930 104.7728 
378 100.0000 87.81479 100.0000 86.36746 81.72498 105.7442 
379 0.00000 0.00000 11.03211 0.321258 0.198328 1.324860 
380 16.82974 0.00000 15.65777 1.463824 0.741276 2.299468 
381 28.70087 0.00000 26.99043 3.861028 1.841014 5.994467 
382 86.53176 0.00000 53.72959 35.02376 16.82619 25.33856 
383 88.55128 21.16603 68.62486 41.02063 21.43376 43.19467 
384 65.14852 21.20904 47.22111 20.67388 11.88893 19.16379 
385 75.40793 46.22463 53.19154 33.08284 25.72697 26.40480 
386 76.30781 58.57977 53.17788 38.07418 34.83112 27.54318 
387 14.52372 15.18733 0.00000 1.595465 1.933447 0.408108 
388 15.63828 35.47488 18.93848 4.996891 7.930332 4.053165 
389 82.49165 37.98591 17.84304 32.27273 22.39837 4.327888 
390 100.0000 40.47926 73.95097 56.54788 34.32738 52.21921 
391 100.0000 53.86652 83.30616 63.28633 43.67778 68.28881 
392 47.54971 80.98697 18.10801 30.43578 49.34283 8.803611 
393 50.76553 84.57955 30.77445 34.66357 54.75306 14.23432 
394 14.48490 68.82587 0.00000 15.75150 31.23681 4.181104 
395 25.50551 74.08324 25.83099 20.88589 38.11541 10.22660 
396 55.62167 79.41542 45.79178 35.40356 49.97577 23.26242 
397 86.11707 83.80770 67.22883 61.25339 66.54520 47.19371 
398 85.40961 83.85575 81.21610 64.36102 67.68032 68.27146 
399 26.34575 0.00000 0.00000 2.370242 1.238794 0.245997 
400 32.83227 13.43814 0.00000 4.292208 3.043271 0.409830 
401 49.11323 16.80601 0.00000 9.515335 6.060489 0.552188 
402 52.53562 34.27984 45.99432 16.47373 12.96225 18.59849 
403 59.43525 62.58580 52.16495 29.72179 33.49333 26.63236 
404 76.34487 64.71452 67.61372 43.56808 41.30186 44.50869 
405 52.07501 18.77440 66.34159 17.86990 9.618198 39.59744 
406 78.27664 18.72960 81.56630 36.41544 18.27244 62.76123 
407 89.51227 56.09680 88.58128 55.65291 40.98627 77.95486 
408 12.64918 100.0000 47.33497 38.54880 73.76401 28.06262 
409 26.46631 100.0000 48.40190 40.49766 74.65053 28.94125 
410 70.59316 100.0000 50.91005 58.45453 83.68475 31.89061 
411 39.51686 74.46466 29.44877 24.74384 40.27629 11.85832 
412 41.72068 82.21072 45.28450 31.58682 50.79684 23.06983 
413 0.00000 45.20861 61.40517 11.73479 14.44462 34.16575 
414 0.00000 65.96197 86.09968 25.99333 32.81187 73.54247 
415 0.00000 75.85501 100.0000 35.94289 44.99641 102.8115 
416 17.04524 86.24308 100.0000 43.29825 58.81626 104.5542 
417 9.514637 23.81561 10.26120 2.279945 3.678076 1.644297 
418 32.81193 24.39530 13.65396 5.693954 5.442933 2.336644 
419 34.25066 30.70260 100.0000 23.83700 13.80420 98.57436 
420 74.71352 7.151117 90.59148 36.14197 16.42698 79.23039 
421 83.35317 26.47880 93.17882 45.41843 23.70180 85.84884 
422 90.40086 49.21221 95.93707 56.89805 37.40055 92.75226 
423 59.82794 21.78836 57.10690 19.90523 11.43173 29.08595 
424 60.98759 42.89803 58.66353 24.86982 19.99398 31.83693 
425 66.67506 63.04408 60.38801 35.07776 36.23915 35.50024 
426 40.43150 22.51501 5.699820 7.270264 5.846479 1.105238 
427 42.17398 42.82526 6.523047 11.68772 14.05581 2.219739 
428 44.57254 53.98194 8.082645 16.10920 21.74619 3.365459 
429 46.02596 61.74743 36.10026 21.10816 28.65983 13.76098 
430 64.92156 71.97992 55.19117 37.67385 44.42182 31.16260 
431 73.37830 71.63550 76.65029 47.21341 48.25090 58.51515 
432 6.061097 43.17772 73.16402 14.28265 14.50870 50.11227 
433 20.99764 55.75779 76.52695 20.49594 23.85851 56.05778 
434 57.79402 70.75193 82.48430 39.64780 43.32029 67.92457 
435 64.57694 78.15342 89.70123 49.56563 54.32737 82.58176 
436 90.80612 80.08070 89.91506 69.06961 65.72153 83.53886 
437 85.78829 11.10356 51.79366 34.65014 17.32771 23.63119 
438 95.91129 15.36500 55.54412 44.46861 22.57129 27.89541 
439 65.59626 9.567950 11.22285 16.93130 8.929815 1.760451 
440 75.46157 28.81059 13.54798 25.03642 15.98371 2.784386 
441 89.13102 34.44648 26.18624 36.99536 23.49699 7.162479 
442 93.70490 36.77657 37.86030 42.81826 27.03381 13.59383 
443 40.99879 3.292625 9.808020 6.166825 3.198309 1.280724 
444 52.46253 23.07957 9.383404 11.86978 8.268597 1.648117 
445 58.03639 29.02893 21.58604 15.69209 11.44100 4.772721 
446 76.39263 43.97683 42.75861 31.50083 24.11203 17.09431 
447 32.24546 25.04066 24.04267 6.135687 5.752486 5.254988 
448 40.81024 29.46758 43.24260 11.03632 8.973690 16.13208 
449 19.71216 10.70531 49.26488 5.377064 2.866383 20.62374 
450 21.31192 23.76361 69.53705 10.77386 6.966976 43.44204 
451 21.69278 28.53058 88.88035 17.29299 10.51337 76.43718 
452 26.04051 37.56466 95.02075 21.88742 15.24070 88.94127 
453 88.56985 76.95142 99.78662 68.97329 62.42849 102.8198 
454 7.730723 64.87703 9.196771 13.54837 27.18287 4.485947 
455 32.32248 72.03762 15.12629 20.63217 36.46506 6.671923 
456 70.99992 81.80941 23.99833 42.81570 56.07636 10.99310 
457 10.08645 9.936579 68.92412 8.297419 3.725356 42.47621 
458 21.09281 8.849139 76.92364 11.46163 4.942729 54.51098 
459 32.17523 10.98206 76.37729 13.34212 6.066201 53.80617 
460 53.54960 9.332154 78.40527 20.91232 9.617290 57.10094 
461 59.89715 11.06435 89.91746 27.45874 12.46555 77.58549 
462 60.55175 23.37045 97.68674 31.75525 16.10042 94.08432 
463 0.00000 74.02677 13.67004 17.99456 36.69302 6.498626 
464 8.623796 77.07067 21.08638 20.43073 40.63785 8.930723 
465 19.28950 84.06926 30.56247 26.12731 49.84536 13.88854 
466 40.70890 89.03650 34.98663 34.50759 59.12969 17.18143 
467 0.00000 0.00000 0.00000 0.126716 0.128221 0.214049 
468 0.00000 0.00000 0.00000 0.126738 0.128210 0.214471 
469 28.52856 8.436217 21.04252 3.840316 2.332351 3.929403 
470 79.33675 7.298913 41.17422 27.79049 13.84560 14.45664 
471 88.12642 24.45087 46.62555 37.04230 20.60347 19.31379 
472 83.80375 0.316953 25.91923 29.49996 14.55056 6.012749 
473 90.84486 13.27779 37.24758 36.88873 18.92748 12.09915 
474 92.43169 54.26078 38.67623 46.59960 36.60894 15.39098 
475 78.23808 64.03829 9.245866 37.42527 38.48939 4.821119 
476 88.51245 65.72169 20.10229 46.65894 44.42323 7.607187 
477 91.97338 89.60214 19.20591 63.11942 73.96254 11.08592 
478 92.82009 92.83309 30.09896 67.05269 79.76810 16.08171 
479 14.63559 24.73871 0.436904 2.579496 3.965051 0.677916 
480 33.55015 42.83473 31.37892 10.58526 13.42023 9.429264 
481 47.58165 43.57963 77.80216 23.49298 19.09826 57.17707 
482 63.32746 54.03005 86.53492 36.57756 30.43804 73.94211 
483 52.04604 5.783124 42.19890 12.73108 6.283050 15.07848 
484 70.04742 4.404462 62.55930 25.39466 12.00029 35.15900 
485 70.36635 14.39880 73.12583 28.47275 14.05600 48.86447 
486 70.03496 27.05530 79.91244 31.65544 17.62163 60.18684 
487 11.89847 65.64563 56.06108 18.70336 29.90060 30.44560 
488 39.47073 70.27569 55.75669 26.01544 37.10426 30.94022 
489 67.33162 93.16594 58.12753 52.56719 72.39441 37.55027 
490 11.25544 39.48491 87.42972 17.86140 14.38530 73.64452 
491 17.72042 46.73767 91.37781 21.70496 19.09763 81.67746 
492 15.18301 54.75339 93.01746 24.85341 24.94837 86.42721 
493 0.00000 51.76315 87.86855 20.87822 21.46507 75.10930 
494 17.55086 66.35781 90.31660 28.66200 34.32101 81.55110 
495 11.61302 71.26552 68.27947 24.18759 36.87672 45.78544 
496 39.34019 79.08705 72.75388 34.35859 48.38142 53.63071 
497 7.964982 67.15490 33.98185 16.06550 30.01799 12.98859 
498 11.29448 90.11784 38.60516 30.25017 58.36508 19.31774 
499 25.39700 95.17070 38.59345 35.62216 66.93942 20.43817 
500 9.133845 11.66555 9.632605 1.127065 1.330212 1.294838 
501 35.30577 14.13861 15.60021 5.327317 3.631774 2.536241 
502 39.41467 18.58397 48.56885 9.992737 6.117136 20.24894 
503 41.76918 21.88542 60.89583 13.24581 8.026660 32.84273 
504 45.88966 30.84600 67.94330 17.48308 12.01548 41.95002 
505 45.29984 30.72156 91.54517 24.16924 14.37457 80.91557 
506 9.304597 8.810588 91.44576 14.83727 5.961385 80.40981 
507 8.449454 19.78685 95.13029 17.14217 8.202241 89.13343 
508 26.88622 65.14741 96.13824 31.86900 34.76587 94.02183 
509 26.12876 81.84523 96.78462 40.93648 53.38703 97.92074 
510 10.71643 2.233755 42.75719 3.221230 1.379275 14.99930 
511 23.87970 23.48811 52.30406 7.605637 5.769722 23.50615 
512 29.69829 23.02274 61.25136 10.37285 6.833744 33.21784 
513 29.92967 35.46647 62.37033 12.53619 11.04229 35.05159 
514 10.33786 9.792157 31.29109 2.268469 1.544544 8.035465 
515 27.56227 15.93629 42.02166 5.989161 3.929601 14.72757 
516 41.39294 40.68066 46.18818 13.96453 14.06088 19.20576 
517 75.15633 3.343724 10.06246 22.71263 11.39456 1.571840 
518 88.53435 9.155648 9.176757 32.91795 16.81898 1.596294 
519 97.36649 10.24253 17.55109 41.04734 20.88764 3.558540 
520 100.0000 27.25127 34.52253 46.75126 26.19770 11.05522 
521 11.57849 44.34576 1.323554 6.263665 11.95120 1.763761 
522 7.789741 80.49807 5.434269 21.56095 44.07403 6.257858 
523 23.49919 94.31016 8.455112 32.42493 63.89579 9.152303 
524 9.740509 91.73349 10.16517 29.30031 59.78157 8.884199 
525 33.32596 90.86349 7.623644 32.15428 60.30745 8.421609 
526 44.94167 91.13483 8.747308 35.59802 62.02710 8.592312 
527 57.87513 96.37072 8.244115 44.95913 72.92196 9.772062 
528 8.410217 95.52274 27.97354 33.04952 66.24287 14.77952 
529 13.81675 95.18181 54.85073 36.51792 67.08572 34.07406 
530 27.72202 95.72859 82.71832 45.56347 71.04033 72.62925 
531 20.70794 7.883802 93.81454 16.80221 6.733239 85.58885 
532 50.69157 9.241259 99.80224 26.68332 11.46022 97.59731 
533 43.54056 92.28719 23.11474 36.40650 63.55491 12.29739 
534 59.98618 93.61653 23.41611 44.56315 69.40784 12.89163 
535 62.59970 65.80100 8.560956 28.81936 35.57949 4.795896 
536 74.94998 74.69370 32.37407 41.55780 48.57393 13.75239 
537 77.46155 83.62152 37.89713 49.45186 60.96363 18.46249 
538 21.55940 38.24190 8.240723 6.001038 9.556450 2.070606 
539 27.04234 39.34612 20.42292 7.558080 10.60966 4.737162 
540 92.98622 60.44460 29.88026 48.49541 41.47768 10.89444 
541 95.70490 62.03479 49.83248 54.08130 45.03281 25.06453 
542 7.827557 3.781199 16.82600 0.923934 0.613071 2.603119 
543 18.15645 5.075778 25.50357 2.264921 1.276906 5.350947 
544 59.84717 5.174697 25.97602 14.57153 7.364711 5.778211 
545 69.25226 13.44432 37.29014 21.27237 11.21958 11.73928 
546 74.92224 29.59758 47.21579 27.88167 17.26244 19.62862 
547 83.72537 39.54907 59.86106 38.60008 25.51323 33.30434 
548 100.0000 51.16856 67.11401 57.92445 40.01977 43.42285 
549 0.00000 0.00000 0.00000 0.126852 0.128268 0.214882 
550 91.09243 91.57670 7.361349 63.18246 76.49349 9.014752 
551 100.0000 100.0000 100.0000 94.86400 99.86103 107.9927 
552 32.62716 58.07573 46.07028 16.98917 24.32807 20.30010 
553 54.05113 63.34378 61.44979 29.29408 33.64418 36.71151 
554 62.29609 79.89530 78.57629 46.00258 54.74217 62.82015 
555 18.77063 48.60342 43.60360 10.98339 16.06685 17.44942 
556 21.52896 57.06021 59.30326 17.06258 23.53003 33.02480 
557 47.85874 57.74729 81.78640 29.55685 29.33615 65.48654 
558 55.67393 61.57836 91.56673 37.51080 35.36331 83.63908 
559 26.98253 41.95382 70.95405 15.58707 14.79068 46.76140 
560 32.59222 49.37622 77.31167 20.45166 20.33192 56.73170 
561 90.25561 36.67293 10.40827 37.71756 24.68190 2.805850 
562 91.70106 44.56591 22.28626 41.62116 29.64479 6.352313 
563 76.51654 10.67351 1.355964 23.64043 12.35602 0.694280 
564 93.41196 20.52828 6.897115 37.71712 20.57687 1.642220 
565 92.92492 22.20008 25.26377 38.41604 21.17843 6.176468 
566 91.29595 29.43412 56.20847 41.68241 23.90958 28.46180 
567 91.96108 45.76786 56.62684 46.44014 32.12284 30.09214 
568 88.72733 45.41256 44.29897 41.43437 29.69910 18.49237 
569 86.99997 67.09450 45.08850 48.34553 45.79294 21.38631 
570 86.50774 77.96947 51.56746 54.74304 58.01109 28.56099 
571 25.00736 24.42977 99.43247 20.94866 10.80616 97.61794 
572 41.36940 44.75245 100.0000 29.13244 21.56727 99.56388 
573 0.612958 10.48505 22.15261 1.182621 1.170557 4.095016 
574 6.202279 36.57161 23.04358 4.805444 8.232452 5.392943 
575 13.83992 67.52337 24.95170 15.90200 30.24591 8.936765 
576 12.39046 77.23413 34.58244 21.80792 41.20328 14.71113 
577 56.42546 89.87814 51.91327 43.31709 64.00831 30.42614 
578 94.04828 70.60419 8.428909 53.14099 51.33586 5.708349 
579 95.94456 74.08372 20.99682 57.37066 56.17789 9.176739 
580 8.761801 22.75198 23.07784 2.659685 3.571129 4.788980 
581 24.05523 25.90678 32.90058 5.423442 5.484596 9.302414 
582 25.14951 52.02105 34.90560 12.02794 18.58478 12.06254 
583 24.82433 76.26937 59.02941 26.21406 41.97471 35.40881 
584 30.65748 87.77681 75.02633 38.27390 58.93340 58.18510 
585 43.37791 95.77142 78.40528 48.45671 72.75748 65.56672 
586 78.55570 47.14915 22.41516 31.79054 25.85006 6.347406 
587 85.35639 53.12321 51.93709 42.45675 33.80206 25.82180 
588 63.13916 26.87820 6.807886 17.37387 11.82030 1.499640 
589 71.17811 34.64697 21.17749 24.11689 17.13089 5.025764 
590 79.18721 37.84711 29.88886 30.42120 21.41139 8.790045 
591 65.87909 43.64767 20.96466 22.69946 19.85582 5.405690 
592 66.46422 51.48480 54.17146 29.15838 26.30837 27.39000 
593 71.33945 55.10684 65.12331 36.02930 31.67050 40.46349 
594 82.10159 55.37155 65.61811 43.29458 35.23848 40.93892 
595 93.15953 65.95878 91.76864 64.48049 51.68591 85.78475 
596 49.80570 24.56459 51.09857 14.57732 9.499848 22.56972 
597 64.58089 34.88605 51.60300 23.50868 16.57246 24.08139 
598 65.18468 44.82746 75.11499 31.14458 23.51755 53.65001 
599 67.45229 56.04860 74.82485 36.13548 31.85410 53.93978 
600 66.48803 66.98289 92.40030 45.90075 43.29389 87.20626 
601 29.84648 81.75379 83.13754 36.57783 51.43363 70.84030 
602 44.66206 88.34242 93.63428 48.48258 63.53135 92.56340 
603 64.63526 7.584269 48.46464 19.64563 9.698741 20.29360 
604 74.70159 13.58035 52.05316 26.52994 13.58879 23.77104 
605 78.81962 11.64561 63.86385 31.57998 15.57213 36.76812 
606 79.13906 35.14141 68.68417 35.97065 22.46304 43.49430 
607 87.47978 46.93317 77.51730 47.83786 32.78436 57.89744 
608 0.807974 86.44886 29.99956 26.24809 52.26158 13.73046 
609 31.21564 90.77279 47.06714 34.36361 60.50337 25.90828 
610 39.06990 90.52395 54.35532 37.85032 62.14720 32.90921 
611 61.94539 98.96225 76.94027 58.15199 81.15680 63.71566 
612 0.887132 15.71795 73.22916 9.334174 4.738606 48.63147 
613 28.64911 13.58841 88.73743 16.65444 7.455235 75.23422 
614 33.17286 23.55805 91.26295 19.49374 10.33256 80.89976 
615 42.87876 24.49518 99.30082 25.14931 12.89156 97.14676 
616 88.95122 48.29329 8.772813 39.60510 30.34806 3.255476 
617 99.09683 53.85112 9.913194 50.74880 38.77003 4.113288 
618 74.16622 93.02149 8.112971 51.52719 72.14102 9.164721 
619 82.59814 96.83030 28.17038 61.62151 81.73660 15.79513 
620 22.73505 60.37981 2.715693 12.94971 23.89541 3.369565 
621 40.68382 77.49223 8.568614 25.70759 43.62134 6.286721 
622 49.59126 81.11811 66.69282 37.71159 52.14412 45.61890 
623 24.57350 68.39890 72.17611 24.96643 34.45044 50.71892 
624 41.81188 69.45535 77.20814 31.30678 38.44910 59.20460 
625 49.93179 77.91472 86.13680 41.48371 50.40621 76.22442 
626 2.524919 48.04721 53.94338 11.29134 15.86129 26.43082 
627 11.29648 53.42180 54.91880 13.61014 19.78791 28.04435 
628 35.73390 83.76427 17.24243 28.39800 51.09948 9.031722 
629 57.78486 83.74364 21.11950 36.68797 55.06565 10.28593 
630 64.62826 91.61382 33.26751 46.44542 68.07468 16.98059 
631 71.96716 72.00753 14.13899 37.46783 44.82547 6.685677 
632 80.74004 75.05786 21.76934 45.11614 50.74035 9.330063 
633 94.02014 74.30675 40.88169 57.34611 56.01462 19.10696 
634 93.31967 78.05812 60.78708 62.18478 61.44545 38.47632 
635 71.40719 23.84873 58.58939 26.85244 15.19806 30.53876 
636 76.61104 24.05136 69.61177 32.60335 17.74405 44.67543 
637 40.96471 1.270562 68.75971 13.15044 5.626382 42.08349 
638 44.92211 11.49374 72.14349 15.96838 7.539948 47.44912 
639 61.71187 36.51556 80.07986 28.70174 18.81640 60.68270 
640 73.28655 51.23303 90.36734 42.92449 31.97761 80.52089 
641 75.76598 77.20771 89.83036 55.82905 56.68082 82.80997 
642 9.970740 35.53991 32.89061 5.586544 8.253503 9.645150 
643 9.844703 42.24049 45.89549 8.709218 12.14050 18.77954 
644 9.901656 52.27472 66.21070 15.39159 19.66856 41.11762 
645 52.84500 38.65044 6.207777 14.74012 14.02615 1.974068 
646 76.60059 39.71199 8.432365 27.88883 20.83704 2.496173 
647 90.09511 59.53981 9.620002 44.69915 39.27940 4.566154 
648 92.93484 80.82312 5.354826 57.44950 62.19566 6.845088 
649 51.87278 56.65187 12.95777 19.75470 24.97423 4.389657 
650 69.13602 59.71953 16.36337 29.83246 31.95402 5.659529 
651 74.17719 81.08242 57.26755 48.44045 57.71145 34.67097 
652 88.27989 95.29725 74.11889 72.31260 84.23389 58.96831 
653 22.68975 33.86002 53.68341 9.347125 9.123688 25.43621 
654 27.25611 51.70093 66.20313 17.52975 20.44830 41.15045 
655 42.80735 56.53949 70.45921 24.12413 26.33803 47.58591 
656 55.13942 60.86522 74.67155 31.70481 32.60908 53.73193 
657 82.86275 74.93581 2.893466 46.09273 51.20664 5.577554 
658 91.19161 79.81369 27.60364 56.76589 61.16292 12.32633 
659 100.0000 88.27885 57.33535 74.32616 77.67289 36.50773 
660 43.89448 9.715164 4.154340 7.271250 4.188689 0.698504 
661 55.82718 12.19924 7.571726 12.14127 6.811990 1.141933 
662 55.99639 14.46865 20.25530 12.98032 7.427120 3.908596 
663 68.97931 22.51743 26.76506 20.99481 12.53933 6.526466 
664 78.48857 56.97522 29.95183 35.66566 33.04918 10.30955 
665 78.77488 65.40682 35.98681 40.17980 40.84964 14.58465 
666 39.44929 65.21983 8.619193 18.90933 30.16149 4.560187 
667 50.55253 68.40622 8.898710 24.13599 34.94912 5.064253 
668 61.27487 77.02738 5.469844 33.55990 46.75643 5.908247 
669 74.30466 81.42655 8.368293 43.77814 56.15308 7.112632 
670 82.04780 88.74618 13.50524 54.20868 68.70824 9.259238 
671 39.19636 7.841149 84.83316 17.54644 7.539040 67.93032 
672 48.24573 8.808178 90.09174 22.27219 9.689789 78.05484 
673 89.22833 9.992179 91.06183 47.22401 22.12571 80.17377 
674 89.81081 4.271486 46.02741 36.42693 17.85040 18.30147 
675 90.05697 8.112736 62.44943 39.76090 19.38981 35.02354 
676 99.63435 10.78944 74.90771 51.88858 25.19387 52.39149 
677 39.20080 7.390040 46.38400 8.739827 4.349930 17.96053 
678 43.82415 8.687976 58.25556 12.31225 5.929470 29.79878 
679 54.96784 7.880628 60.10793 16.92990 8.106166 31.82456 
680 58.98103 7.901549 70.32555 21.00837 9.820847 44.62633 
681 73.86416 21.41273 4.795553 22.82538 13.40206 1.193571 
682 83.82979 28.38773 2.755929 30.96910 18.81908 1.375722 
683 96.90771 30.33423 16.06344 42.71733 25.14345 3.696232 
684 53.12987 1.523162 10.41804 10.50131 5.274012 1.451501 
685 54.78179 21.28031 41.08769 14.94057 9.143277 14.46136 
686 62.09195 29.99932 40.89704 19.47815 13.30602 14.57060 
687 29.43619 58.51957 11.52142 13.65481 23.14734 4.237641 
688 48.07915 68.49853 20.70041 23.92231 35.15274 7.745448 
689 74.41944 92.16236 21.72898 51.54970 71.07587 12.09037 
690 86.26166 100.0000 51.74804 69.51324 89.15466 32.87920 
691 60.51618 50.20597 8.482073 21.34303 22.24020 3.141804 
692 67.22730 54.41612 28.26138 27.30275 27.39202 9.220514 
693 70.61430 64.49498 47.22815 35.73899 37.57397 22.32515 
694 79.69016 70.68577 57.45870 46.47028 47.46247 33.65239 
695 44.70069 36.44477 58.27493 16.10009 13.28267 30.81242 
696 54.65671 39.64378 67.33075 22.68365 17.50250 41.98254 
697 5.172322 76.87447 43.47987 22.09692 40.80830 20.65383 
698 9.269301 88.36400 62.75497 32.64894 56.88650 41.41363 
699 8.868995 96.88094 71.52186 40.76172 70.33446 54.51150 
700 91.18804 33.66871 67.19774 44.88494 26.40172 41.85556 
701 94.36303 45.03849 86.12066 56.00014 35.54938 73.19268 
702 20.30452 28.12624 23.02869 4.509605 5.678305 5.040786 
703 25.60617 35.13823 31.32492 7.152002 8.909447 8.945917 
704 33.80921 36.52403 38.71914 9.832522 10.57055 13.33275 
705 37.13420 38.47038 76.76133 18.51396 14.70130 55.27537 
706 24.90800 4.438152 59.03793 7.602897 3.286443 30.53207 
707 42.32037 21.97758 72.97736 16.16972 9.116858 48.64035 
708 51.35691 23.88597 82.86586 22.49565 12.30793 64.65460 
709 79.85947 41.28908 90.87287 44.68498 28.07225 81.41838 
710 49.60409 11.31088 29.68480 10.49781 5.782805 7.515149 
711 59.62802 10.38433 38.38606 15.81828 8.195051 12.36574 
712 59.89522 25.90378 71.84623 23.60667 13.62781 47.47015 
713 73.85276 38.24989 78.86548 35.65646 23.11664 58.80629 
714 34.35609 8.796742 35.23112 6.153505 3.333195 10.24699 
715 34.36898 21.72394 35.25097 7.219382 5.491238 10.52907 
716 54.97059 72.96714 60.99179 34.06372 43.11775 37.58078 
717 63.95815 77.38807 67.99755 42.42028 50.80655 46.59735 
718 4.617174 10.55325 44.48927 3.435249 2.009169 16.14659 
719 6.518448 18.72461 52.91922 5.494319 3.860868 23.91975 
720 22.90439 5.797561 39.14110 4.179916 2.106984 12.57441 
721 48.11209 75.83821 37.78624 29.01925 43.39227 16.59686 
722 88.64797 85.19438 38.52120 58.74001 66.90677 19.18168 
723 95.66491 90.58138 45.84852 69.67274 78.06190 25.89972 
724 58.07337 31.34864 90.58312 29.26740 17.16017 79.74022 
725 57.22286 85.37793 94.71105 52.39842 62.69025 94.65685 
726 11.32000 23.67522 76.35225 11.54325 7.032751 53.82353 
727 12.60341 35.08139 76.75957 13.66511 11.01382 55.26367 
728 7.799509 91.86407 81.67044 39.84676 63.66113 69.52576 
729 10.39620 92.40601 91.90561 43.90613 65.97788 88.83945 
730 59.95354 94.85026 91.39106 58.65198 76.18665 88.63019 
731 6.837090 20.90955 35.79322 3.344038 3.420751 10.52166 
732 18.02205 30.90297 41.19680 6.319531 7.112734 14.56981 
733 24.83355 33.26168 79.30131 15.38784 11.29084 58.79073 
734 29.91596 50.08384 89.08342 23.91435 22.07746 77.69136 
735 38.23971 75.73036 90.90456 37.78830 46.32924 84.68175 
736 46.34089 97.39781 90.96146 54.48232 76.87983 88.42055 
737 4.481467 35.72897 4.163211 3.814274 7.493980 1.449089 
738 9.748631 40.20136 12.08459 5.374115 9.959086 2.782056 
739 15.70446 46.54546 23.60102 8.139653 14.01396 6.267250 
740 25.55751 61.98706 25.44693 15.00566 26.01527 8.487278 
741 37.78761 65.11189 25.11106 19.04459 30.22841 8.747307 
742 64.67431 69.68126 24.74923 32.43023 40.42543 9.454566 
743 38.29806 50.06196 60.70241 18.41377 20.23434 34.31039 
744 38.57555 59.45482 90.08629 29.97753 30.51041 81.03854 
745 0.00000 26.70198 79.13480 12.12657 7.905301 57.83244 
746 38.42455 28.85671 82.10268 18.60686 11.54640 63.48813 
747 45.38548 41.14364 90.71144 26.13440 18.94875 80.00694 
748 54.21340 49.37421 90.90106 32.23455 25.70243 81.68983 
749 55.84461 68.26679 43.80418 29.06296 37.09833 20.12433 
750 65.62449 75.26016 44.15119 37.68100 47.16040 21.44677 
751 72.36897 86.63767 48.45435 49.41765 63.64037 27.13582 
752 78.47843 91.84969 59.77173 58.68474 73.56831 39.23144 
753 89.85093 90.89282 60.34221 67.12534 76.98668 40.11030 
754 93.36024 91.41682 81.27629 75.54716 80.81178 69.51896 
755 39.01857 52.07687 36.03656 15.29994 20.16907 12.78000 
756 44.64860 54.04442 47.47377 19.32284 23.06336 21.31747 
757 20.90384 12.33143 66.16921 8.883454 4.323711 39.18462 
758 29.94473 21.32125 78.69663 14.46718 7.917050 57.82165 
759 0.00000 27.89226 58.15608 7.265085 6.421595 29.23998 
760 9.531745 39.70882 57.90396 10.03993 11.48471 30.23033 
761 10.12292 59.09421 75.04545 20.37723 26.01018 53.95883 
762 8.090167 79.06987 76.03272 30.22225 46.29795 58.34062 
763 9.849731 80.31665 93.53964 36.83717 49.93400 91.07821 
764 3.545129 74.37167 86.40222 30.32284 41.68795 75.01784 
765 23.82568 75.23484 88.78270 33.37642 43.74587 79.49726 
766 90.83679 91.70298 92.47563 77.70283 81.91694 91.65626 
767 25.36579 7.706539 8.549915 2.657159 1.749815 1.055964 
768 24.10956 17.90227 7.181087 3.075488 3.041791 1.072292 
769 26.33514 77.12876 6.739902 21.88726 41.38395 5.926267 
770 33.13083 82.89988 27.80937 27.58139 49.45535 12.46392 
771 51.39936 91.49903 41.01424 40.54547 64.48027 21.69375 
772 10.11642 56.65898 22.22757 10.88137 20.61643 6.753805 
773 8.358679 59.49254 43.28708 13.96498 23.76544 18.18692 
774 32.69995 59.06512 60.63838 20.14858 26.32026 35.11588 
775 43.74990 67.28098 66.26643 28.08171 35.66094 43.06940 
776 90.95622 67.65937 69.88798 56.57009 49.87618 48.36016 
777 92.99097 76.56808 78.16596 65.08317 60.98667 62.08285 
778 50.67777 44.84646 41.37615 17.63691 17.61085 15.99959 
779 68.69415 54.00499 41.84998 29.55560 28.19543 17.26824 
780 74.88411 84.99308 68.22728 53.91314 63.98670 48.73922 
781 78.22802 92.37606 77.16990 63.31619 76.37829 63.41168 
782 8.909358 8.156258 54.83216 5.233230 2.483006 25.81227 
783 9.164937 24.75660 65.67261 8.795401 6.282665 38.24876 
784 6.328266 66.54244 79.34876 24.47197 32.87165 61.53958 
785 7.006882 68.04862 93.55604 30.13612 36.27489 89.33392 
786 65.56816 7.178531 79.24701 26.72496 12.25302 58.51138 
787 70.22482 18.30837 88.16115 33.11376 16.30106 74.29781 
788 93.89283 24.18869 89.74901 52.12669 26.67887 78.54476 
789 78.91160 7.500626 76.57700 34.41939 16.20228 54.27325 
790 89.97034 5.849821 76.22105 42.65175 20.18651 53.80095 
791 89.12207 17.89710 79.85667 43.90549 21.94641 60.17000 
792 90.13131 34.83896 88.35380 50.25421 28.59057 75.74525 
793 7.708435 86.69173 48.03161 28.87504 53.69975 25.84828 
794 23.26678 89.43256 54.99191 33.42597 58.78573 33.07690 
795 25.38996 90.57861 65.34197 36.66688 61.30943 45.26047 
796 39.32192 91.96299 66.66322 41.39029 65.23310 47.58165 
797 23.55388 39.69371 45.76566 9.516133 11.44735 18.75912 
798 30.49970 49.89483 53.25891 14.87289 18.43300 26.08103 
799 91.82507 57.73508 62.16552 51.21968 40.74131 37.51325 
800 41.64020 5.314224 24.23769 7.033492 3.675132 5.061192 
801 48.48775 23.58317 31.76279 11.50317 8.030637 8.780031 
802 49.78483 34.11439 34.90908 14.01878 11.88569 10.93769 
803 56.61003 52.41899 50.55338 24.05072 24.52031 24.04478 
804 1.072892 24.41355 17.45498 2.236942 3.721148 3.191671 
805 5.344667 29.59053 42.48558 5.254952 6.149283 15.31057 
806 0.00000 64.59232 56.29988 17.84275 28.87732 30.44909 
807 2.731008 74.10670 64.32423 24.18732 39.02410 41.03232 
808 15.95511 82.27630 84.15135 35.33006 51.53450 72.96656 
809 74.11732 45.45482 67.07725 34.83117 25.89750 42.44842 
810 78.31501 60.96885 77.67962 45.80345 39.50614 59.14691 
811 77.77359 62.39678 91.68392 50.40325 42.19853 84.82010 
812 39.69398 48.64749 22.32875 13.25664 17.41971 6.155473 
813 47.83738 54.96007 26.96615 18.40128 23.32099 8.509650 
814 57.47533 60.67305 29.52962 25.09685 30.28740 10.27796 
815 100.0000 100.0000 100.0000 94.65344 99.72207 107.7569 
816 21.95305 28.37128 12.57361 4.222330 5.589115 2.218804 
817 21.57236 49.42367 13.42217 9.137011 15.82269 3.690572 
818 22.57077 63.34159 39.27706 16.49953 27.76740 15.88829 
819 36.37421 70.92249 41.58991 23.20855 36.64092 18.57426 
820 49.00194 88.95471 59.37225 40.91501 61.97985 37.75337 
821 57.12284 91.23471 67.22091 47.80893 67.48251 47.85815 
822 68.50094 89.58222 86.07374 57.75043 69.78369 77.74183 
823 77.75535 91.10377 92.70062 66.75701 75.52456 90.94130 
824 71.82842 10.81339 21.52232 21.35665 11.18225 4.414228 
825 79.01283 11.13852 30.17755 26.59155 13.68411 8.052394 
826 89.30891 24.69306 36.12776 36.42559 20.58176 11.66253 
827 47.07701 32.59641 12.58084 11.21276 10.19837 2.513807 
828 47.22887 35.90414 23.68695 12.43740 11.87568 5.695950 
829 35.51194 34.01656 8.922740 7.833484 8.995566 1.961474 
830 56.03318 45.10658 24.98196 18.53144 18.42223 6.923776 
831 59.14380 48.01124 35.60154 21.74363 21.14561 12.32527 
832 7.861661 2.563052 77.81491 10.14871 3.861980 55.44905 
833 10.43316 13.48746 81.51021 11.96840 5.433336 62.04920 
834 74.53660 18.51723 97.95306 39.34556 18.92201 95.01721 
835 15.14036 73.20494 48.06729 21.49902 37.35786 24.05286 
836 30.04333 78.99035 48.14483 26.87135 44.76489 24.99055 
END_DATA
CAL    

DESCRIPTOR "Argyll Device Calibration State"
ORIGINATOR "Argyll dispread"
CREATED "Sun Apr  3 18:44:54 2022"
DEVICE_CLASS "DISPLAY"
COLOR_REP "RGB"

NUMBER_OF_FIELDS 4
BEGIN_DATA_FORMAT
RGB_I RGB_R RGB_G RGB_B 
END_DATA_FORMAT

NUMBER_OF_SETS 256
BEGIN_DATA
0.00000 0.00000 0.00000 0.00000 
0.00392157 0.0135186 0.0138364 0.00923411 
0.00784314 0.0250355 0.0255948 0.0176867 
0.0117647 0.0349640 0.0357086 0.0254529 
0.0156863 0.0435675 0.0444243 0.0326132 
0.0196078 0.0510289 0.0519119 0.0392330 
0.0235294 0.0575713 0.0584169 0.0453651 
0.0274510 0.0633883 0.0641527 0.0510585 
0.0313725 0.0686405 0.0692953 0.0563714 
0.0352941 0.0734551 0.0739829 0.0613642 
0.0392157 0.0779325 0.0783210 0.0660939 
0.0431373 0.0821440 0.0823879 0.0706090 
0.0470588 0.0861513 0.0862518 0.0749505 
0.0509804 0.0899919 0.0899512 0.0791527 
0.0549020 0.0937082 0.0935291 0.0832424 
0.0588235 0.0973126 0.0970005 0.0872477 
0.0627451 0.100840 0.100404 0.0911808 
0.0666667 0.104297 0.103741 0.0950582 
0.0705882 0.107687 0.107018 0.0988849 
0.0745098 0.111035 0.110260 0.102685 
0.0784314 0.114339 0.113464 0.106459 
0.0823529 0.117599 0.116627 0.110204 
0.0862745 0.120824 0.119765 0.113921 
0.0901961 0.124040 0.122896 0.117608 
0.0941176 0.127240 0.126014 0.121257 
0.0980392 0.130414 0.129110 0.124890 
0.101961 0.133562 0.132183 0.128512 
0.105882 0.136694 0.135246 0.132118 
0.109804 0.139832 0.138318 0.135704 
0.113725 0.142980 0.141399 0.139266 
0.117647 0.146132 0.144485 0.142812 
0.121569 0.149283 0.147568 0.146338 
0.125490 0.152437 0.150653 0.149836 
0.129412 0.155590 0.153740 0.153309 
0.133333 0.158748 0.156838 0.156751 
0.137255 0.161924 0.159960 0.160153 
0.141176 0.165121 0.163109 0.163531 
0.145098 0.168340 0.166286 0.166903 
0.149020 0.171566 0.169475 0.170264 
0.152941 0.174796 0.172668 0.173607 
0.156863 0.178033 0.175869 0.176935 
0.160784 0.181278 0.179081 0.180253 
0.164706 0.184523 0.182301 0.183562 
0.168627 0.187750 0.185506 0.186850 
0.172549 0.190986 0.188722 0.190126 
0.176471 0.194238 0.191958 0.193391 
0.180392 0.197507 0.195212 0.196654 
0.184314 0.200795 0.198485 0.199921 
0.188235 0.204094 0.201777 0.203185 
0.192157 0.207385 0.205060 0.206435 
0.196078 0.210668 0.208333 0.209671 
0.200000 0.213943 0.211593 0.212887 
0.203922 0.217226 0.214854 0.216095 
0.207843 0.220518 0.218120 0.219300 
0.211765 0.223818 0.221389 0.222500 
0.215686 0.227105 0.224654 0.225690 
0.219608 0.230373 0.227893 0.228866 
0.223529 0.233637 0.231125 0.232039 
0.227451 0.236892 0.234348 0.235210 
0.231373 0.240154 0.237573 0.238372 
0.235294 0.243437 0.240813 0.241529 
0.239216 0.246738 0.244068 0.244693 
0.243137 0.250070 0.247345 0.247879 
0.247059 0.253430 0.250656 0.251091 
0.250980 0.256787 0.253968 0.254305 
0.254902 0.260136 0.257270 0.257518 
0.258824 0.263479 0.260562 0.260729 
0.262745 0.266816 0.263847 0.263941 
0.266667 0.270140 0.267119 0.267154 
0.270588 0.273473 0.270394 0.270364 
0.274510 0.276824 0.273687 0.273580 
0.278431 0.280196 0.276999 0.276806 
0.282353 0.283589 0.280329 0.280044 
0.286275 0.286995 0.283672 0.283293 
0.290196 0.290391 0.287013 0.286549 
0.294118 0.293749 0.290318 0.289792 
0.298039 0.297077 0.293588 0.293018 
0.301961 0.300401 0.296850 0.296235 
0.305882 0.303727 0.300115 0.299452 
0.309804 0.307051 0.303381 0.302681 
0.313725 0.310356 0.306638 0.305922 
0.317647 0.313641 0.309876 0.309168 
0.321569 0.316912 0.313104 0.312413 
0.325490 0.320169 0.316318 0.315665 
0.329412 0.323428 0.319532 0.318921 
0.333333 0.326693 0.322759 0.322181 
0.337255 0.329969 0.325997 0.325456 
0.341176 0.333282 0.329271 0.328752 
0.345098 0.336625 0.332587 0.332069 
0.349020 0.339974 0.335920 0.335405 
0.352941 0.343320 0.339252 0.338734 
0.356863 0.346668 0.342585 0.342057 
0.360784 0.350019 0.345920 0.345371 
0.364706 0.353374 0.349258 0.348678 
0.368627 0.356733 0.352596 0.351978 
0.372549 0.360111 0.355949 0.355266 
0.376471 0.363501 0.359315 0.358552 
0.380392 0.366878 0.362676 0.361839 
0.384314 0.370240 0.366016 0.365119 
0.388235 0.373617 0.369355 0.368387 
0.392157 0.377011 0.372716 0.371647 
0.396078 0.380417 0.376089 0.374912 
0.400000 0.383838 0.379475 0.378191 
0.403922 0.387292 0.382894 0.381481 
0.407843 0.390783 0.386353 0.384791 
0.411765 0.394308 0.389850 0.388129 
0.415686 0.397867 0.393383 0.391499 
0.419608 0.401437 0.396945 0.394902 
0.423529 0.404971 0.400489 0.398335 
0.427451 0.408455 0.403984 0.401774 
0.431373 0.411896 0.407429 0.405197 
0.435294 0.415308 0.410833 0.408603 
0.439216 0.418715 0.414225 0.411997 
0.443137 0.422116 0.417611 0.415388 
0.447059 0.425536 0.420998 0.418789 
0.450980 0.428988 0.424411 0.422197 
0.454902 0.432468 0.427844 0.425616 
0.458824 0.435976 0.431291 0.429046 
0.462745 0.439522 0.434764 0.432481 
0.466667 0.443103 0.438262 0.435921 
0.470588 0.446691 0.441773 0.439376 
0.474510 0.450273 0.445271 0.442843 
0.478431 0.453870 0.448764 0.446316 
0.482353 0.457495 0.452281 0.449793 
0.486275 0.461137 0.455818 0.453281 
0.490196 0.464775 0.459358 0.456789 
0.494118 0.468422 0.462902 0.460315 
0.498039 0.472071 0.466456 0.463844 
0.501961 0.475724 0.470016 0.467383 
0.505882 0.479379 0.473582 0.470929 
0.509804 0.483039 0.477156 0.474482 
0.513725 0.486713 0.480742 0.478043 
0.517647 0.490410 0.484351 0.481612 
0.521569 0.494134 0.487985 0.485189 
0.525490 0.497927 0.491660 0.488778 
0.529412 0.501775 0.495421 0.492392 
0.533333 0.505631 0.499206 0.496034 
0.537255 0.509492 0.502990 0.499722 
0.541176 0.513360 0.506775 0.503421 
0.545098 0.517232 0.510559 0.507125 
0.549020 0.521106 0.514342 0.510836 
0.552941 0.524982 0.518123 0.514553 
0.556863 0.528863 0.521900 0.518277 
0.560784 0.532750 0.525680 0.522007 
0.564706 0.536636 0.529457 0.525743 
0.568627 0.540539 0.533240 0.529486 
0.572549 0.544448 0.537043 0.533236 
0.576471 0.548332 0.540850 0.536993 
0.580392 0.552201 0.544636 0.540769 
0.584314 0.556083 0.548417 0.544560 
0.588235 0.559985 0.552219 0.548354 
0.592157 0.563923 0.556051 0.552152 
0.596078 0.567897 0.559926 0.555955 
0.600000 0.571875 0.563837 0.559765 
0.603922 0.575812 0.567749 0.563595 
0.607843 0.579714 0.571621 0.567446 
0.611765 0.583610 0.575461 0.571302 
0.615686 0.587503 0.579302 0.575142 
0.619608 0.591387 0.583143 0.578969 
0.623529 0.595269 0.586981 0.582802 
0.627451 0.599165 0.590825 0.586648 
0.631373 0.603062 0.594691 0.590499 
0.635294 0.606953 0.598559 0.594354 
0.639216 0.610844 0.602427 0.598221 
0.643137 0.614721 0.606298 0.602088 
0.647059 0.618569 0.610158 0.605956 
0.650980 0.622406 0.613996 0.609824 
0.654902 0.626253 0.617832 0.613692 
0.658824 0.630106 0.621687 0.617543 
0.662745 0.633969 0.625553 0.621377 
0.666667 0.637872 0.629440 0.625209 
0.670588 0.641837 0.633379 0.629051 
0.674510 0.645889 0.637399 0.632896 
0.678431 0.650041 0.641522 0.636758 
0.682353 0.654294 0.645758 0.640646 
0.686275 0.658652 0.650102 0.644584 
0.690196 0.663114 0.654559 0.648585 
0.694118 0.667568 0.659112 0.652656 
0.698039 0.671926 0.663608 0.656800 
0.701961 0.676182 0.667999 0.661019 
0.705882 0.680328 0.672283 0.665275 
0.709804 0.684375 0.676454 0.669500 
0.713725 0.688345 0.680528 0.673674 
0.717647 0.692266 0.684536 0.677795 
0.721569 0.696153 0.688504 0.681860 
0.725490 0.700037 0.692464 0.685886 
0.729412 0.703914 0.696431 0.689889 
0.733333 0.707775 0.700392 0.693883 
0.737255 0.711653 0.704361 0.697880 
0.741176 0.715553 0.708362 0.701899 
0.745098 0.719481 0.712392 0.705930 
0.749020 0.723439 0.716460 0.709974 
0.752941 0.727394 0.720540 0.714029 
0.756863 0.731351 0.724612 0.718091 
0.760784 0.735318 0.728694 0.722168 
0.764706 0.739294 0.732781 0.726252 
0.768627 0.743289 0.736880 0.730338 
0.772549 0.747329 0.741021 0.734439 
0.776471 0.751388 0.745179 0.738550 
0.780392 0.755464 0.749348 0.742671 
0.784314 0.759551 0.753523 0.746798 
0.788235 0.763655 0.757709 0.750935 
0.792157 0.767758 0.761886 0.755086 
0.796078 0.771843 0.766041 0.759248 
0.800000 0.775934 0.770203 0.763423 
0.803922 0.780047 0.774387 0.767606 
0.807843 0.784203 0.778621 0.771780 
0.811765 0.788419 0.782917 0.775945 
0.815686 0.792691 0.787271 0.780102 
0.819608 0.796998 0.791644 0.784266 
0.823529 0.801254 0.795953 0.788455 
0.827451 0.805449 0.800192 0.792674 
0.831373 0.809596 0.804376 0.796910 
0.835294 0.813717 0.808539 0.801120 
0.839216 0.817845 0.812708 0.805287 
0.843137 0.821974 0.816873 0.809421 
0.847059 0.826100 0.821031 0.813538 
0.850980 0.830236 0.825194 0.817654 
0.854902 0.834390 0.829361 0.821764 
0.858824 0.838555 0.833522 0.825859 
0.862745 0.842737 0.837699 0.829935 
0.866667 0.846958 0.841908 0.834002 
0.870588 0.851221 0.846140 0.838071 
0.874510 0.855482 0.850332 0.842138 
0.878431 0.859691 0.854461 0.846221 
0.882353 0.863859 0.858549 0.850322 
0.886275 0.868002 0.862607 0.854431 
0.890196 0.872144 0.866669 0.858518 
0.894118 0.876305 0.870751 0.862582 
0.898039 0.880500 0.874863 0.866638 
0.901961 0.884725 0.878986 0.870688 
0.905882 0.888937 0.883087 0.874756 
0.909804 0.893131 0.887172 0.878857 
0.913725 0.897335 0.891279 0.883005 
0.917647 0.901572 0.895418 0.887189 
0.921569 0.905828 0.899562 0.891407 
0.925490 0.910070 0.903692 0.895666 
0.929412 0.914324 0.907841 0.899995 
0.933333 0.918598 0.912004 0.904400 
0.937255 0.922861 0.916159 0.908866 
0.941176 0.927131 0.920326 0.913401 
0.945098 0.931405 0.924501 0.918026 
0.949020 0.935689 0.928695 0.922716 
0.952941 0.939981 0.932903 0.927492 
0.956863 0.944283 0.937123 0.932359 
0.960784 0.948596 0.941355 0.937328 
0.964706 0.952918 0.945599 0.942396 
0.968627 0.957252 0.949858 0.947562 
0.972549 0.961601 0.954133 0.952824 
0.976471 0.965962 0.958420 0.958187 
0.980392 0.970334 0.962717 0.963653 
0.984314 0.974719 0.967025 0.969219 
0.988235 0.979115 0.971343 0.974888 
0.992157 0.983523 0.975672 0.980663 
0.996078 0.987943 0.980012 0.986546 
1.000000 0.992375 0.984363 0.992541 
END_DATA
