CTI3   

DESCRIPTOR "Argyll Calibration Target chart information 3"
ORIGINATOR "Argyll dispread"
CREATED "Wed Mar 16 21:11:39 2022"
DEVICE_CLASS "DISPLAY"
COLOR_REP "RGB_XYZ"
TARGET_INSTRUMENT "X-Rite i1 DisplayPro, ColorMunki Display"
DISPLAY_TYPE_REFRESH "NO"
INSTRUMENT_TYPE_SPECTRAL "NO"
LUMINANCE_XYZ_CDM2 "61.597644 64.781920 71.133016"
NORMALIZED_TO_Y_100 "YES"
VIDEO_LUT_CALIBRATION_POSSIBLE "YES"

NUMBER_OF_FIELDS 7
BEGIN_DATA_FORMAT
SAMPLE_ID RGB_R RGB_G RGB_B XYZ_X XYZ_Y XYZ_Z 
END_DATA_FORMAT

NUMBER_OF_SETS 836
BEGIN_DATA
1 100.0000 100.0000 100.0000 95.08462 100.0000 109.8038 
2 39.60025 0.00000 0.00000 4.078341 2.580591 0.918287 
3 51.23213 0.00000 0.00000 7.013417 4.412234 1.382554 
4 59.22988 19.30410 31.34008 12.69780 9.251119 9.465576 
5 0.00000 86.90899 20.26359 31.91287 48.11230 10.73491 
6 13.46706 88.08354 22.36019 33.61728 50.09782 11.72565 
7 17.30515 100.0000 31.78814 45.64349 67.74839 18.72926 
8 0.00000 0.00000 71.98058 9.814395 7.002266 44.40394 
9 16.81811 0.00000 82.98448 14.22819 10.07259 61.41167 
10 18.32074 17.01863 100.0000 22.58366 16.32243 95.11390 
11 51.26895 19.59589 100.0000 29.24591 20.81757 95.93740 
12 53.46364 35.70716 100.0000 32.83038 26.01437 96.23626 
13 66.49950 44.72248 100.0000 40.88690 33.50756 98.19153 
14 76.18808 100.0000 100.0000 80.48322 90.71334 107.3288 
15 88.33274 100.0000 100.0000 87.20094 94.91405 108.4276 
16 82.70985 0.00000 16.16562 20.91946 13.13606 5.507386 
17 89.34815 10.59635 25.96354 25.98845 16.75977 9.194165 
18 100.0000 13.56827 29.08798 33.49455 21.72704 11.93927 
19 100.0000 0.00000 12.96134 31.60603 19.79904 6.698039 
20 100.0000 0.00000 25.12398 32.70029 20.44231 9.887263 
21 100.0000 0.00000 37.57789 33.72645 21.29525 15.97034 
22 100.0000 11.92838 46.13284 35.85807 23.22815 22.32468 
23 100.0000 0.00000 49.48357 35.91019 22.80428 24.65735 
24 100.0000 0.00000 62.16930 38.62840 24.66909 36.98877 
25 100.0000 13.03572 65.23003 39.63566 26.16450 40.35171 
26 100.0000 27.04558 75.05191 44.66447 31.27046 55.65447 
27 47.18709 68.58071 88.56511 39.65713 42.39814 75.99909 
28 49.64192 83.41522 100.0000 55.61792 61.75899 101.6848 
29 12.65826 13.07018 20.21387 1.924759 1.880914 3.614484 
30 24.12105 15.93196 29.06903 3.988545 3.488093 7.165664 
31 56.34936 50.78912 77.37506 30.05353 28.45797 56.44200 
32 67.23541 64.46371 81.46435 41.58839 41.45787 64.55082 
33 75.72254 0.00000 0.00000 16.56944 10.39705 2.914789 
34 78.35240 15.83880 14.40839 19.41983 12.97915 5.045903 
35 85.53729 48.55999 31.36508 32.51078 28.26622 13.16116 
36 100.0000 75.97514 69.34435 64.01400 62.17543 51.69892 
37 100.0000 88.16955 72.07236 73.54245 76.00626 57.93075 
38 33.73300 46.19677 12.01769 10.92913 13.74238 3.803341 
39 34.09378 61.36455 34.05495 19.27458 24.90476 12.87103 
40 46.22300 65.98225 48.06293 26.53658 32.11777 23.75166 
41 48.41618 77.13905 53.79299 35.52683 44.46150 30.65513 
42 74.27290 74.80885 64.90496 46.40947 50.07209 43.91265 
43 83.81905 74.96399 71.78588 53.72860 54.85361 53.19366 
44 10.16290 52.34590 10.63778 10.67648 15.73847 3.710572 
45 15.42191 57.75234 32.42043 14.84877 20.66141 11.34151 
46 74.54351 94.04903 39.59229 56.61495 69.75783 24.20557 
47 50.92142 100.0000 0.00000 49.89462 70.29072 11.79423 
48 52.78558 100.0000 18.78953 51.24939 71.15262 14.66136 
49 61.13795 100.0000 36.53564 55.77935 74.12081 22.97894 
50 75.65487 65.93456 25.08945 34.61665 37.01847 11.59302 
51 77.26992 74.92251 46.54489 43.86775 48.18055 25.57204 
52 84.39015 100.0000 83.63850 78.71510 89.57745 77.24279 
53 0.00000 0.00000 58.12631 6.055823 4.340110 27.39691 
54 16.76053 0.00000 65.77843 8.752758 6.154438 36.05894 
55 50.56612 0.00000 67.02538 15.12680 10.14431 38.52313 
56 67.10130 33.89736 67.54001 24.98111 20.05497 41.28744 
57 89.92376 49.48012 67.94767 42.05399 35.11435 45.19127 
58 90.97280 61.02353 78.38309 51.32902 45.90867 61.72618 
59 100.0000 84.69534 85.44626 75.25201 74.91263 77.68713 
60 50.89880 45.65960 0.00000 14.36813 15.77023 3.090944 
61 68.11784 56.58264 0.00000 24.86335 26.35377 5.097867 
62 84.87260 66.79420 0.00000 39.09882 40.18854 7.694421 
63 85.45413 73.30975 34.16682 45.53213 48.02121 17.78882 
64 39.04833 31.63763 31.31424 9.306154 9.128254 9.119870 
65 56.03732 31.90629 57.75326 18.23573 15.12763 29.67068 
66 74.44068 34.57700 58.47445 26.41851 20.95020 31.47174 
67 86.50602 35.47889 49.37512 31.68129 24.16051 24.67047 
68 100.0000 70.14006 55.25882 56.15271 52.95269 35.12856 
69 39.69235 54.21608 0.00000 14.92097 19.16457 3.411794 
70 39.71916 58.22579 16.82288 17.26835 22.19960 6.063448 
71 54.48774 70.75773 30.55848 29.08915 35.91618 13.27098 
72 58.71336 73.08348 16.00871 31.25230 38.66318 8.726325 
73 66.49591 86.08630 14.63228 43.54338 54.93034 11.15241 
74 62.72091 100.0000 0.00000 53.97388 72.79579 12.38523 
75 67.68572 100.0000 14.98621 56.47542 74.41086 14.62350 
76 0.00000 100.0000 25.62919 44.34372 66.82240 15.70873 
77 0.00000 100.0000 38.02026 45.66370 67.86980 22.41486 
78 0.00000 100.0000 75.94552 54.68259 74.56646 62.53259 
79 0.00000 100.0000 87.84604 58.35315 76.73971 80.07527 
80 37.11003 100.0000 86.73327 61.87457 79.19892 79.79096 
81 63.49847 100.0000 100.0000 75.01921 87.33478 106.5061 
82 0.00000 14.68076 63.37174 8.182338 6.494959 33.54740 
83 17.24656 33.72193 64.64874 12.37628 12.07851 36.01709 
84 20.05510 43.47235 81.38039 20.90188 20.18333 60.61776 
85 25.31735 59.98208 86.35683 29.87322 32.05333 70.40878 
86 72.94196 0.00000 54.44580 20.56575 13.30720 26.61303 
87 82.90934 0.00000 68.66359 29.12857 18.98481 42.68953 
88 85.05265 33.46712 78.52929 38.13269 28.28661 59.15874 
89 84.45809 35.81130 100.0000 46.65207 34.74851 98.43384 
90 28.75042 28.45392 42.81728 8.203487 7.916350 15.58245 
91 36.41243 29.13117 54.36619 11.75850 10.46001 25.57720 
92 83.34103 18.38844 0.00000 22.12958 14.92956 3.875646 
93 86.94392 23.38573 15.24379 25.01025 17.44012 6.225330 
94 100.0000 35.50364 25.35955 36.86271 27.41595 11.15847 
95 73.98115 32.32891 0.00000 19.33303 15.36151 3.600586 
96 72.64776 49.85877 12.40381 24.42890 23.63080 6.126411 
97 82.21272 56.43318 18.85218 32.76756 31.37433 9.000051 
98 81.65949 56.86986 40.99098 34.78993 32.97957 19.46034 
99 26.00899 25.19997 0.00000 3.906068 4.381851 1.043543 
100 42.49659 30.48608 0.00000 7.891858 7.857732 1.751341 
101 58.19295 30.34185 0.00000 12.38843 10.59919 2.454484 
102 62.55268 41.98756 43.91662 20.57440 18.82730 18.76729 
103 61.72667 82.56300 57.92722 44.46110 53.44133 36.28908 
104 65.59553 88.24871 72.87807 54.60183 64.13025 56.02427 
105 67.03653 42.99951 0.00000 19.18823 18.02126 3.796400 
106 82.07782 50.94878 0.00000 29.47798 27.25388 5.673941 
107 100.0000 59.86939 0.00000 44.96652 40.37759 8.484608 
108 20.44230 44.53381 58.51505 14.48667 16.12020 30.13403 
109 23.12720 78.71220 71.02063 36.38515 46.44911 49.67195 
110 40.71736 84.86659 84.65692 48.01118 57.69348 71.89795 
111 6.892000 28.87877 89.81449 18.77336 15.71545 72.85118 
112 17.02608 32.46044 100.0000 25.06715 20.34932 94.85345 
113 26.49390 46.56775 100.0000 30.10240 27.32048 95.99315 
114 33.01190 59.06240 100.0000 36.51202 36.06062 97.41706 
115 85.34946 68.01783 100.0000 60.58487 55.28818 101.5806 
116 33.29984 13.73491 65.53381 11.50814 8.541911 36.49004 
117 33.16889 37.94790 87.12711 22.93564 20.12216 69.23702 
118 19.83291 19.14958 82.49872 15.42130 11.95051 60.02680 
119 42.51813 18.30156 85.15475 20.22338 14.79981 65.86493 
120 0.00000 0.00000 35.00399 2.128183 1.537434 9.359035 
121 0.00000 0.00000 46.60894 3.824519 2.739490 17.13776 
122 0.00000 0.00000 100.0000 20.43023 14.18441 93.71821 
123 0.00000 14.30480 100.0000 21.13134 15.34740 94.00219 
124 83.60841 17.63563 100.0000 42.75008 29.17859 97.57681 
125 28.83372 68.51270 0.00000 20.25562 28.99433 4.777282 
126 43.78753 70.22084 0.00000 24.12463 32.27438 5.460515 
127 68.29998 71.63987 0.00000 33.64601 39.57013 7.030271 
128 86.70879 77.03611 13.07096 47.27518 51.45275 10.89287 
129 0.00000 100.0000 51.43547 48.04271 69.62798 32.57298 
130 0.00000 100.0000 63.45529 50.63049 71.41081 44.76103 
131 17.15728 100.0000 64.85883 51.83000 72.08913 46.74281 
132 0.00000 76.57760 54.97787 29.14703 40.13949 30.30735 
133 13.36635 78.01031 60.75120 31.72180 42.52738 36.72795 
134 36.72225 80.93584 61.10711 36.59926 47.29034 37.86080 
135 49.36478 87.86501 74.94998 49.43566 60.61848 58.54106 
136 100.0000 46.91551 0.00000 39.22838 31.93389 7.158422 
137 100.0000 73.82830 0.00000 53.06591 52.85501 10.35758 
138 100.0000 82.65319 17.53441 59.92875 62.72955 14.22140 
139 32.47542 0.00000 73.47048 12.86227 8.989939 46.66119 
140 32.96186 0.00000 87.76967 18.13008 12.52156 69.76096 
141 0.00000 58.69114 0.00000 12.91447 19.59105 3.228880 
142 0.00000 73.43892 0.00000 21.23449 32.47321 5.189337 
143 16.26577 75.77015 12.31725 24.12652 35.88130 7.052518 
144 19.34610 95.15631 74.12665 50.57032 67.54072 58.31992 
145 17.72841 100.0000 82.67740 57.32452 76.06958 72.27634 
146 100.0000 0.00000 0.00000 31.25207 19.52840 5.333655 
147 100.0000 15.25927 0.00000 32.27894 20.95566 5.519355 
148 100.0000 100.0000 12.77605 74.61676 85.75211 17.22284 
149 100.0000 100.0000 25.99514 75.63699 86.52747 20.90336 
150 100.0000 100.0000 39.00696 77.18415 87.45022 27.84654 
151 11.64634 46.81457 100.0000 28.71550 26.33378 95.99522 
152 17.46290 60.32972 100.0000 35.01986 35.60742 97.42518 
153 0.00000 13.63272 31.78752 2.477620 2.353139 7.946585 
154 15.64724 18.05992 41.67025 4.860762 4.349224 13.99750 
155 15.88626 18.60571 58.61824 8.074240 6.653189 28.45705 
156 33.08727 29.30574 70.90423 15.27208 13.12219 44.34631 
157 51.87441 34.42160 80.37457 23.92624 19.75411 59.19522 
158 62.66517 42.76003 89.46326 33.69415 28.26500 76.19091 
159 100.0000 47.73994 35.34141 41.80926 33.93263 16.86966 
160 100.0000 61.48909 39.14058 48.39342 43.52509 20.58020 
161 100.0000 62.96474 67.77765 55.27163 48.99976 48.30478 
162 22.41416 84.30502 15.05054 30.78539 45.43930 8.987688 
163 25.48234 92.51702 23.52421 38.61821 56.79560 13.12256 
164 18.49407 84.51092 0.00000 30.41005 45.42799 7.245771 
165 37.26505 84.42178 0.00000 32.48561 46.26725 7.500235 
166 55.17329 86.35178 9.315094 39.35583 52.35626 9.650265 
167 46.77176 0.00000 48.60097 9.948306 6.579981 19.83108 
168 64.61241 0.00000 85.80290 26.18804 17.76055 67.79387 
169 100.0000 35.79719 86.82542 50.93522 37.22448 74.18288 
170 100.0000 100.0000 100.0000 94.97927 99.77054 109.8025 
171 34.34916 0.00000 58.40938 9.180814 6.300397 28.19507 
172 49.11542 0.00000 81.88925 19.49691 13.27618 60.00547 
173 60.82752 20.44088 81.95037 24.77031 17.90654 61.39914 
174 0.00000 0.00000 22.54997 0.969863 0.708711 4.040494 
175 0.00000 14.93718 84.30231 14.79659 11.12872 63.92461 
176 0.00000 38.48700 84.76511 19.09727 17.76713 65.34586 
177 14.99034 24.67029 30.44088 4.347528 4.729780 8.044068 
178 19.08052 42.16557 33.38938 9.154233 11.61694 10.32360 
179 32.92956 45.84548 43.19587 13.91794 15.83744 17.21605 
180 44.40247 59.35368 57.11846 24.26320 27.60455 31.03303 
181 88.23262 0.00000 0.00000 23.22038 14.55099 3.972922 
182 100.0000 19.52784 15.31497 33.16313 22.02159 7.558946 
183 0.00000 61.18269 17.09986 14.68267 21.72601 5.809918 
184 0.00000 73.61788 28.04295 22.99587 33.90238 11.49904 
185 14.32593 34.36936 0.00000 4.831896 6.776118 1.335140 
186 31.92997 38.52218 0.00000 7.791713 9.553150 1.876239 
187 48.46209 44.14088 16.41574 13.84976 15.10327 5.052967 
188 58.69833 55.87186 20.54185 21.79678 24.23453 7.626781 
189 64.22686 81.25523 34.12466 40.27881 49.27415 17.33293 
190 0.00000 100.0000 100.0000 63.72980 80.42457 105.1407 
191 13.31213 100.0000 100.0000 64.50952 80.97709 105.4182 
192 51.65206 100.0000 100.0000 70.94935 84.82999 105.9587 
193 0.00000 0.00000 86.07768 14.41001 10.26154 65.86973 
194 13.73917 0.00000 100.0000 20.97248 14.61080 93.99640 
195 27.86799 0.00000 100.0000 22.62290 15.42642 94.26907 
196 36.04760 14.63226 100.0000 24.83031 17.76420 94.83042 
197 82.75928 51.75202 100.0000 51.35882 42.57652 99.86320 
198 100.0000 62.06723 100.0000 66.65268 56.29362 102.6539 
199 0.00000 13.25978 0.00000 0.820338 1.152872 0.454186 
200 0.00000 16.56132 15.93866 1.534507 1.890402 2.514422 
201 0.00000 19.08297 45.32613 4.901273 4.533279 16.69702 
202 11.95633 30.53426 51.55691 8.318657 8.524417 22.10849 
203 10.11717 54.39444 84.73442 25.35444 26.93574 66.77520 
204 30.17553 74.26940 100.0000 44.92764 49.29218 99.70346 
205 35.10017 87.47520 100.0000 55.43246 64.53156 101.9918 
206 0.00000 68.59460 42.46298 21.14787 29.65732 18.55345 
207 0.00000 88.54075 54.54183 37.91183 53.41063 32.50069 
208 35.92781 100.0000 58.72912 53.03612 72.68659 40.67542 
209 47.25901 100.0000 66.88481 57.73379 75.79133 50.58855 
210 100.0000 100.0000 76.21651 85.68627 93.63133 67.19366 
211 100.0000 100.0000 88.23162 90.49623 97.13091 86.68989 
212 0.00000 0.00000 0.00000 0.156842 0.134483 0.301440 
213 0.00000 100.0000 0.00000 43.27125 66.02711 10.72467 
214 13.25232 100.0000 0.00000 43.67654 66.36041 10.81309 
215 26.35892 100.0000 0.00000 45.20912 67.57779 10.99953 
216 37.84788 100.0000 15.28843 47.36852 68.68257 13.27757 
217 83.33075 83.20448 0.00000 48.78150 55.88172 10.08882 
218 100.0000 87.11890 0.00000 62.73998 67.60607 12.54029 
219 100.0000 87.41775 35.64511 65.38753 69.64604 22.80463 
220 0.00000 100.0000 12.97366 43.46111 66.27747 12.17924 
221 18.25722 100.0000 15.79657 44.61600 66.93610 12.89289 
222 32.26536 100.0000 29.88943 47.74572 69.21992 18.29717 
223 47.02167 100.0000 32.35213 51.03681 71.36946 19.79741 
224 83.09754 21.98039 57.15719 28.34543 19.77744 30.87015 
225 100.0000 38.71015 60.14152 43.25131 32.49151 36.11600 
226 62.60084 0.00000 14.77228 11.36128 7.166188 3.738489 
227 69.52708 0.00000 26.33339 14.86910 9.426541 7.595899 
228 80.67027 23.41040 25.77600 22.32558 15.77432 8.707596 
229 82.93123 34.17888 38.44137 27.34536 20.99832 16.01133 
230 46.62696 14.21053 14.20462 6.882860 5.044079 2.988489 
231 64.67254 21.02926 16.09213 13.85679 10.12849 4.511126 
232 63.71593 90.15166 43.81891 48.82744 61.54649 25.61392 
233 72.11886 100.0000 71.81606 67.92597 82.33365 58.03903 
234 0.00000 85.31656 38.49415 32.53780 47.45994 18.93344 
235 29.32492 85.04493 37.83544 34.37303 48.53659 18.64606 
236 18.75546 83.69498 45.17352 32.79163 46.28876 23.20181 
237 39.71451 100.0000 44.83130 50.79919 71.16967 27.91451 
238 53.46206 100.0000 50.22947 55.46374 74.13427 33.02108 
239 61.29149 36.70163 12.07622 15.44245 13.95342 4.300433 
240 70.59899 44.09408 33.41001 23.11275 20.88027 12.52713 
241 77.03252 50.01429 80.01035 38.93427 33.91342 61.71396 
242 56.59801 0.00000 100.0000 29.47950 19.95748 95.64851 
243 65.88235 14.22587 100.0000 33.67904 23.31258 96.48162 
244 68.82295 30.08031 100.0000 37.42372 27.62213 97.32777 
245 32.33635 69.52512 64.97723 29.24410 35.90871 40.43068 
246 61.06984 100.0000 64.51991 61.52642 78.42995 47.89211 
247 84.38367 100.0000 66.36802 72.98411 85.31619 51.75185 
248 0.00000 86.28806 0.00000 30.50314 46.59893 7.361984 
249 39.06448 100.0000 0.00000 47.42650 68.93965 11.34558 
250 75.44238 100.0000 0.00000 59.36131 76.23779 13.26118 
251 84.80219 100.0000 18.22610 65.41856 79.92627 16.75806 
252 80.66900 86.99690 27.79472 52.05763 60.99551 16.68782 
253 83.99580 88.31019 49.15016 57.92133 65.75612 30.72122 
254 13.49141 54.24358 0.00000 11.37564 16.91617 2.862439 
255 19.62993 63.97199 14.86388 17.21347 24.94807 5.855182 
256 24.79450 73.26767 37.43308 25.50745 35.62020 16.31467 
257 0.00000 57.62416 31.51175 13.96557 19.93667 10.60820 
258 0.00000 57.73029 65.05709 20.08237 24.36712 38.69604 
259 16.13038 62.85113 65.97015 23.66119 28.79586 40.49127 
260 14.51731 72.93889 100.0000 42.27967 46.83330 99.14463 
261 0.00000 27.76291 100.0000 22.99102 18.25704 94.57199 
262 0.00000 40.36481 100.0000 26.28987 23.00298 95.42610 
263 0.00000 52.79651 100.0000 30.63663 29.88080 96.29206 
264 0.00000 64.05806 100.0000 36.13334 37.90386 97.71668 
265 0.00000 87.85105 100.0000 52.27550 62.74385 101.4437 
266 26.39815 100.0000 100.0000 65.43266 81.33670 105.1353 
267 39.62078 100.0000 100.0000 67.82748 82.86445 105.4086 
268 36.32667 33.84852 20.10447 8.236365 8.803445 4.790241 
269 45.45748 44.15223 31.92488 14.32043 15.49247 10.47109 
270 66.51915 65.73880 36.83116 31.86804 35.25073 16.77560 
271 88.62107 66.03864 57.66535 46.86602 45.14569 35.21450 
272 71.94324 0.00000 100.0000 35.30736 23.47037 96.19089 
273 85.80314 0.00000 100.0000 42.87283 28.17469 97.56607 
274 100.0000 0.00000 100.0000 51.93270 33.78842 98.93753 
275 100.0000 12.35580 100.0000 52.60716 34.87444 99.22100 
276 52.43716 81.59915 0.00000 34.47829 45.93588 7.685920 
277 66.08243 86.92823 0.00000 43.83693 55.82599 9.503313 
278 26.08374 50.66313 0.00000 11.21716 15.51984 2.724684 
279 27.88913 51.33911 23.54339 12.66933 16.78526 6.883404 
280 55.29276 57.12973 40.22718 23.51410 26.04958 17.08555 
281 57.05378 71.07941 100.0000 49.59414 50.29973 100.2313 
282 71.58764 74.13374 100.0000 57.49561 57.20417 101.6250 
283 0.00000 26.52956 0.00000 2.490609 3.710007 0.837891 
284 0.00000 43.33748 0.00000 6.737396 10.20998 1.815328 
285 0.00000 48.40964 13.26211 8.738188 12.99014 3.680963 
286 0.00000 70.00161 72.91768 29.14708 36.15504 50.99967 
287 0.00000 83.04072 84.73785 41.92528 52.58066 70.78504 
288 25.31275 90.33600 91.32336 52.41171 64.79061 84.46719 
289 55.91010 62.85146 0.00000 23.42742 28.13583 5.043837 
290 87.83837 100.0000 0.00000 66.16057 80.37521 14.32974 
291 100.0000 100.0000 0.00000 74.77380 86.01217 15.75052 
292 43.97591 15.17106 39.06744 8.466938 6.357387 12.91735 
293 53.64583 14.07486 50.92454 13.20199 9.350378 22.39917 
294 65.97239 15.32140 63.01021 20.48343 14.27289 35.47727 
295 42.36621 0.00000 32.20316 6.448330 4.210638 8.626104 
296 71.61582 0.00000 40.50770 17.28829 11.12540 14.92644 
297 79.31824 19.07655 40.66636 22.72507 15.64992 16.32044 
298 100.0000 38.12990 46.16050 40.40598 30.19019 23.34650 
299 100.0000 53.60079 52.04029 47.05832 39.70066 29.69213 
300 63.28228 0.00000 0.00000 11.04537 6.927556 2.023316 
301 65.64566 15.37070 0.00000 12.88910 8.866586 2.386183 
302 87.32463 36.98225 0.00000 27.60825 21.63334 5.029754 
303 100.0000 51.88718 20.04915 42.13597 35.45309 10.72847 
304 42.82173 0.00000 100.0000 25.35830 17.36842 94.54355 
305 42.67225 69.20694 100.0000 43.84179 45.40490 99.11772 
306 0.00000 34.36456 69.13414 13.08518 12.63114 41.50160 
307 16.44087 46.30047 72.10290 18.08097 19.20884 46.95578 
308 0.00000 51.89150 75.55073 21.00597 22.81924 53.08303 
309 33.29994 60.29047 76.16881 27.95127 30.83028 55.19506 
310 60.54806 36.70519 30.73560 16.44753 14.72400 10.21902 
311 71.60900 100.0000 29.11160 59.20235 76.18257 19.78607 
312 83.60279 100.0000 37.41158 66.73127 81.12329 25.30883 
313 100.0000 100.0000 50.99960 79.42147 89.20413 37.34710 
314 100.0000 100.0000 63.74805 82.01700 91.00554 50.63216 
315 100.0000 30.95596 0.00000 34.60601 24.71307 6.090649 
316 100.0000 39.30669 12.04695 37.20745 28.31843 7.885756 
317 100.0000 37.10525 100.0000 56.84281 41.42531 100.0847 
318 100.0000 49.18696 100.0000 60.92767 47.51907 101.2239 
319 30.79928 0.00000 42.76197 5.638129 3.814953 14.65921 
320 30.40956 12.12202 52.51563 7.887477 5.932917 22.67455 
321 0.00000 28.16263 30.54523 4.370969 5.290621 8.086686 
322 0.00000 35.70465 47.75927 8.448763 9.620699 19.59372 
323 17.94605 69.73810 81.11057 32.71169 38.65687 63.48365 
324 30.95855 69.36922 81.70070 34.03558 39.12335 63.75569 
325 21.70922 16.18716 17.77121 2.775367 2.661243 3.105822 
326 47.00695 24.01655 19.89020 8.473313 7.127350 4.686644 
327 72.08975 30.60291 35.49896 20.39268 15.90227 13.12842 
328 72.26817 32.58699 89.61428 34.30792 26.36044 75.61012 
329 34.58316 40.46558 54.50816 14.22659 14.64959 26.21686 
330 41.60980 42.81108 67.33388 19.59481 18.90498 40.94340 
331 42.17973 50.27743 86.60907 28.84422 27.64944 70.65340 
332 51.80703 54.96156 100.0000 39.41999 36.28585 98.50932 
333 68.20700 59.46731 100.0000 47.65502 43.40829 99.90228 
334 0.00000 84.64064 69.59266 38.24222 51.07824 47.88596 
335 15.43547 86.11541 74.79978 42.06096 54.86136 57.15410 
336 100.0000 64.77507 14.03232 48.10619 44.89554 10.77260 
337 100.0000 70.00104 29.04482 52.13904 50.07188 16.39532 
338 100.0000 80.37766 46.48938 61.95913 62.88252 28.94928 
339 49.41061 0.00000 19.53229 7.206608 4.580515 4.203892 
340 57.39567 0.00000 34.67754 11.03719 7.084948 10.61034 
341 59.24997 0.00000 54.03624 15.08053 9.850055 25.25008 
342 66.52084 0.00000 70.46022 21.90459 14.57092 44.24996 
343 81.90055 0.00000 84.17031 33.84863 22.46214 66.38213 
344 100.0000 16.02096 84.26467 46.21026 30.91750 68.86786 
345 100.0000 69.10670 84.09920 63.90189 57.84817 72.60214 
346 100.0000 75.10245 100.0000 74.96593 69.05117 104.3793 
347 0.00000 41.22772 37.50706 8.498786 10.87090 12.65381 
348 0.00000 52.16652 47.22170 13.94888 18.03843 20.15223 
349 33.68973 100.0000 72.93697 56.67293 75.62178 58.06838 
350 52.84571 100.0000 81.76317 63.90361 80.36090 71.42691 
351 67.24835 100.0000 86.06537 70.45192 84.27978 79.48964 
352 0.00000 32.41340 14.92565 4.091751 5.880320 2.893748 
353 0.00000 44.81686 25.70701 8.264532 11.62402 6.900904 
354 7.806245 49.68744 36.13424 11.52854 15.59837 12.44310 
355 19.61339 58.72041 49.10346 18.14842 23.49888 22.79309 
356 25.67566 67.13047 53.14750 24.11249 31.24661 27.42883 
357 52.57871 73.47158 73.48034 39.29160 44.77990 53.18820 
358 55.29043 86.88130 83.56741 53.83986 63.26946 71.90307 
359 65.45377 86.69676 100.0000 63.84271 69.23890 103.3599 
360 85.07663 0.00000 35.09703 23.94712 15.13188 12.84298 
361 100.0000 24.32638 49.55806 37.66061 25.78184 25.38971 
362 100.0000 25.55669 61.71662 40.64905 28.09988 37.00644 
363 34.41609 0.00000 14.05352 3.507556 2.253264 2.374368 
364 39.41941 16.50027 26.22704 6.278729 4.939385 6.367558 
365 13.24230 0.00000 0.00000 0.644018 0.438540 0.376537 
366 14.52923 0.00000 33.41823 2.517970 1.761968 8.572528 
367 17.40448 0.00000 50.03120 5.312537 3.740003 20.41392 
368 49.15440 45.77677 54.10601 19.42956 19.58424 26.93372 
369 49.99648 50.70371 64.71415 23.86128 24.18976 38.32370 
370 60.26172 53.65648 64.36012 28.39241 28.17699 38.77491 
371 63.56932 66.53253 70.48209 38.02414 40.13489 48.97816 
372 74.01133 81.47585 80.16168 55.75825 60.48947 66.00930 
373 100.0000 0.00000 75.28509 42.17963 27.43033 54.81344 
374 100.0000 0.00000 87.60739 46.40007 30.12592 73.31636 
375 100.0000 24.69141 100.0000 54.09653 37.09812 99.78725 
376 83.67552 70.40334 83.98852 54.44863 52.77761 70.96062 
377 83.76460 84.77934 100.0000 71.52582 72.74549 104.4439 
378 100.0000 87.81479 100.0000 83.96090 82.78182 106.6657 
379 0.00000 0.00000 11.03211 0.391512 0.299220 1.383644 
380 16.82974 0.00000 15.65777 1.319858 0.893524 2.318534 
381 28.70087 0.00000 26.99043 3.393153 2.260613 6.040962 
382 86.53176 0.00000 53.72959 27.64962 17.80622 26.88398 
383 88.55128 21.16603 68.62486 33.94459 23.43848 44.46750 
384 65.14852 21.20904 47.22111 17.52799 12.67985 19.98113 
385 75.40793 46.22463 53.19154 29.52624 25.87780 27.64045 
386 76.30781 58.57977 53.17788 34.78400 33.84176 28.58067 
387 14.52372 15.18733 0.00000 1.561963 1.776775 0.582283 
388 15.63828 35.47488 18.93848 5.737693 7.587942 4.115517 
389 82.49165 37.98591 17.84304 25.93791 20.87819 7.102679 
390 100.0000 40.47926 73.95097 48.17402 36.44706 55.16025 
391 100.0000 53.86652 83.30616 55.74549 45.82160 69.48940 
392 47.54971 80.98697 18.10801 33.09116 44.69384 9.888047 
393 50.76553 84.57955 30.77445 38.10505 50.70246 15.58244 
394 14.48490 68.82587 0.00000 19.03886 28.46534 4.593732 
395 25.50551 74.08324 25.83099 24.97862 35.54921 10.67728 
396 55.62167 79.41542 45.79178 37.93018 47.22644 24.45068 
397 86.11707 83.80770 67.22883 59.67971 63.93005 48.98378 
398 85.40961 83.85575 81.21610 63.64331 66.71456 68.78956 
399 26.34575 0.00000 0.00000 1.855105 1.194210 0.567336 
400 32.83227 13.43814 0.00000 3.564445 2.877729 0.884602 
401 49.11323 16.80601 0.00000 7.350405 5.540849 1.509999 
402 52.53562 34.27984 45.99432 15.41365 13.68017 18.97566 
403 59.43525 62.58580 52.16495 29.59644 32.43168 27.01846 
404 76.34487 64.71452 67.61372 41.78619 41.40720 45.22970 
405 52.07501 18.77440 66.34159 16.71626 12.30778 38.40534 
406 78.27664 18.72960 81.56630 32.27572 22.41690 61.93712 
407 89.51227 56.09680 88.58128 51.76064 44.34229 77.58815 
408 12.64918 100.0000 47.33497 47.76503 69.17773 29.48496 
409 26.46631 100.0000 48.40190 49.10964 70.18150 30.34769 
410 70.59316 100.0000 50.91005 62.15187 78.39983 34.39118 
411 39.51686 74.46466 29.44877 27.99248 37.84023 12.76928 
412 41.72068 82.21072 45.28450 35.72355 47.43822 23.51590 
413 0.00000 45.20861 61.40517 14.18637 15.95133 33.27743 
414 0.00000 65.96197 86.09968 31.47540 35.91947 71.26859 
415 0.00000 75.85501 100.0000 43.44582 49.24447 99.43680 
416 17.04524 86.24308 100.0000 51.92426 61.47033 101.4343 
417 9.514637 23.81561 10.26120 2.540202 3.337110 1.764583 
418 32.81193 24.39530 13.65396 5.240527 5.150426 2.775813 
419 34.25066 30.70260 100.0000 26.73022 21.16499 95.12601 
420 74.71352 7.151117 90.59148 32.92918 22.19010 76.69576 
421 83.35317 26.47880 93.17882 41.05985 29.26217 83.93991 
422 90.40086 49.21221 95.93707 52.61529 42.31008 91.49181 
423 59.82794 21.78836 57.10690 17.74606 13.10684 29.09546 
424 60.98759 42.89803 58.66353 23.21717 20.86861 31.85976 
425 66.67506 63.04408 60.38801 34.36351 35.74646 35.70504 
426 40.43150 22.51501 5.699820 6.130421 5.429949 1.768636 
427 42.17398 42.82526 6.523047 11.32817 12.95040 2.998392 
428 44.57254 53.98194 8.082645 16.26543 20.04477 4.303402 
429 46.02596 61.74743 36.10026 22.13802 27.07259 14.47448 
430 64.92156 71.97992 55.19117 38.20968 43.05924 31.99368 
431 73.37830 71.63550 76.65029 47.39486 49.05143 59.00345 
432 6.061097 43.17772 73.16402 16.94702 17.37918 48.00714 
433 20.99764 55.75779 76.52695 24.01820 26.49331 54.28656 
434 57.79402 70.75193 82.48430 41.76559 44.75970 65.97433 
435 64.57694 78.15342 89.70123 52.42446 56.32503 80.20602 
436 90.80612 80.08070 89.91506 67.18400 66.71885 82.69042 
437 85.78829 11.10356 51.79366 27.49553 18.12407 25.33224 
438 95.91129 15.36500 55.54412 35.20548 23.17037 30.42327 
439 65.59626 9.567950 11.22285 12.77519 8.414507 3.457459 
440 75.46157 28.81059 13.54798 19.71790 14.92451 5.125191 
441 89.13102 34.44648 26.18624 29.25042 22.22540 10.34077 
442 93.70490 36.77657 37.86030 34.06428 25.93764 16.97105 
443 40.99879 3.292625 9.808020 4.802594 3.107810 1.922932 
444 52.46253 23.07957 9.383404 9.531403 7.649008 2.752969 
445 58.03639 29.02893 21.58604 13.01327 10.81527 5.905830 
446 76.39263 43.97683 42.75861 27.28947 23.64817 18.97370 
447 32.24546 25.04066 24.04267 5.804272 5.657958 5.448230 
448 40.81024 29.46758 43.24260 10.59918 9.598199 16.20303 
449 19.71216 10.70531 49.26488 5.907473 4.530264 20.07704 
450 21.31192 23.76361 69.53705 12.12601 10.08569 41.75233 
451 21.69278 28.53058 88.88035 19.77960 16.20285 72.84747 
452 26.04051 37.56466 95.02075 24.88729 21.55620 84.83668 
453 88.56985 76.95142 99.78662 68.67996 66.17381 103.0111 
454 7.730723 64.87703 9.196771 16.63805 24.89316 4.845361 
455 32.32248 72.03762 15.12629 23.69448 33.50295 7.392697 
456 70.99992 81.80941 23.99833 42.87747 51.77129 13.17486 
457 10.08645 9.936579 68.92412 9.662093 7.210852 40.45860 
458 21.09281 8.849139 76.92364 12.96113 9.395752 52.26039 
459 32.17523 10.98206 76.37729 14.55522 10.56040 52.13611 
460 53.54960 9.332154 78.40527 20.21772 13.98339 55.90005 
461 59.89715 11.06435 89.91746 26.68358 18.43175 74.48285 
462 60.55175 23.37045 97.68674 31.53129 22.93553 91.20238 
463 0.00000 74.02677 13.67004 22.21950 33.56859 6.913953 
464 8.623796 77.07067 21.08638 25.37144 37.79488 9.337848 
465 19.28950 84.06926 30.56247 31.21572 45.39419 14.41173 
466 40.70890 89.03650 34.98663 39.47159 54.55080 18.12323 
467 0.00000 0.00000 0.00000 0.156620 0.134301 0.301117 
468 0.00000 0.00000 0.00000 0.156668 0.134165 0.301454 
469 28.52856 8.436217 21.04252 3.305619 2.508659 4.043880 
470 79.33675 7.298913 41.17422 21.79405 14.15570 16.31070 
471 88.12642 24.45087 46.62555 29.47001 20.54644 21.71776 
472 83.80375 0.316953 25.91923 22.44300 14.12488 8.493019 
473 90.84486 13.27779 37.24758 28.10884 18.46962 15.05914 
474 92.43169 54.26078 38.67623 39.69048 34.94672 18.47162 
475 78.23808 64.03829 9.245866 34.00586 35.45579 7.683602 
476 88.51245 65.72169 20.10229 41.24085 41.01912 11.03191 
477 91.97338 89.60214 19.20591 59.89807 67.61677 15.10265 
478 92.82009 92.83309 30.09896 64.46402 73.40395 20.26688 
479 14.63559 24.73871 0.436904 2.748964 3.583303 0.852926 
480 33.55015 42.83473 31.37892 11.09914 12.95516 9.669919 
481 47.58165 43.57963 77.80216 24.51412 22.43159 55.87288 
482 63.32746 54.03005 86.53492 36.95630 34.24985 72.04234 
483 52.04604 5.783124 42.19890 10.78679 7.210239 15.40002 
484 70.04742 4.404462 62.55930 21.40157 14.15696 34.92133 
485 70.36635 14.39880 73.12583 24.76298 17.17136 47.96084 
486 70.03496 27.05530 79.91244 29.06884 21.57167 59.44832 
487 11.89847 65.64563 56.06108 22.67534 29.66363 30.13015 
488 39.47073 70.27569 55.75669 28.81502 35.76731 31.01198 
489 67.33162 93.16594 58.12753 55.92527 68.81512 38.95014 
490 11.25544 39.48491 87.42972 20.76315 19.34265 69.80490 
491 17.72042 46.73767 91.37781 25.35848 24.22088 77.89328 
492 15.18301 54.75339 93.01746 29.11766 29.70655 81.81540 
493 0.00000 51.76315 87.86855 24.96876 25.68719 71.50271 
494 17.55086 66.35781 90.31660 34.09012 38.01653 77.95361 
495 11.61302 71.26552 68.27947 29.22233 37.03645 44.50186 
496 39.34019 79.08705 72.75388 39.62300 48.68114 52.39484 
497 7.964982 67.15490 33.98185 19.74474 28.28634 13.25386 
498 11.29448 90.11784 38.60516 37.04197 54.00055 19.98231 
499 25.39700 95.17070 38.59345 43.00141 62.00086 21.43225 
500 9.133845 11.66555 9.632605 1.183658 1.302995 1.393378 
501 35.30577 14.13861 15.60021 4.496836 3.552366 2.907992 
502 39.41467 18.58397 48.56885 9.362802 7.374308 19.89912 
503 41.76918 21.88542 60.89583 13.00362 10.16655 31.64986 
504 45.88966 30.84600 67.94330 17.32864 14.63815 40.53507 
505 45.29984 30.72156 91.54517 25.50592 20.21800 77.57470 
506 9.304597 8.810588 91.44576 17.23952 12.53064 76.17653 
507 8.449454 19.78685 95.13029 19.83186 15.08314 83.98058 
508 26.88622 65.14741 96.13824 36.90577 39.25120 89.64357 
509 26.12876 81.84523 96.78462 48.07908 56.06570 93.33457 
510 10.71643 2.233755 42.75719 3.586821 2.577379 14.39642 
511 23.87970 23.48811 52.30406 8.218656 7.215139 22.58274 
512 29.69829 23.02274 61.25136 10.92956 9.065151 31.91240 
513 29.92967 35.46647 62.37033 13.77247 13.20347 33.85995 
514 10.33786 9.792157 31.29109 2.496742 2.117904 7.782947 
515 27.56227 15.93629 42.02166 5.950326 4.869611 14.37199 
516 41.39294 40.68066 46.18818 14.39216 14.65688 19.22970 
517 75.15633 3.343724 10.06246 16.85585 10.65275 3.896535 
518 88.53435 9.155648 9.176757 24.09367 15.44915 4.921214 
519 97.36649 10.24253 17.55109 30.64102 19.55454 7.509875 
520 100.0000 27.25127 34.52253 36.14998 25.02681 14.91657 
521 11.57849 44.34576 1.323554 7.500539 11.00494 1.961083 
522 7.789741 80.49807 5.434269 26.39927 39.98629 6.701128 
523 23.49919 94.31016 8.455112 39.47658 58.75562 10.18700 
524 9.740509 91.73349 10.16517 35.67498 54.06483 9.558958 
525 33.32596 90.86349 7.623644 37.44811 54.44240 9.385102 
526 44.94167 91.13483 8.747308 39.95359 56.08663 9.928178 
527 57.87513 96.37072 8.244115 49.57327 67.20015 11.98872 
528 8.410217 95.52274 27.97354 40.82863 60.95376 15.66509 
529 13.81675 95.18181 54.85073 44.77778 63.42745 34.42170 
530 27.72202 95.72859 82.71832 54.60896 70.66996 71.13241 
531 20.70794 7.883802 93.81454 19.14470 13.53481 80.62804 
532 50.69157 9.241259 99.80224 27.42545 19.11092 93.98587 
533 43.54056 92.28719 23.11474 41.57574 58.23787 13.47655 
534 59.98618 93.61653 23.41611 48.32842 63.96555 14.75142 
535 62.59970 65.80100 8.560956 27.92775 32.63209 6.627559 
536 74.94998 74.69370 32.37407 40.69382 45.88774 16.12703 
537 77.46155 83.62152 37.89713 48.54477 56.14219 21.07054 
538 21.55940 38.24190 8.240723 6.577626 8.799499 2.344046 
539 27.04234 39.34612 20.42292 8.017840 9.992272 4.944397 
540 92.98622 60.44460 29.88026 41.72183 38.64994 14.54814 
541 95.70490 62.03479 49.83248 47.31145 43.12861 28.44965 
542 7.827557 3.781199 16.82600 0.960383 0.763455 2.526570 
543 18.15645 5.075778 25.50357 2.183570 1.631148 5.197420 
544 59.84717 5.174697 25.97602 11.34048 7.354045 6.792507 
545 69.25226 13.44432 37.29014 16.91262 11.38349 13.23767 
546 74.92224 29.59758 47.21579 23.40754 17.63426 21.12853 
547 83.72537 39.54907 59.86106 33.30086 26.58281 34.62710 
548 100.0000 51.16856 67.11401 49.47213 40.38351 45.63290 
549 0.00000 0.00000 0.00000 0.156667 0.134328 0.301122 
550 91.09243 91.57670 7.361349 60.51582 69.60623 13.17254 
551 100.0000 100.0000 100.0000 95.50296 100.3994 110.3614 
552 32.62716 58.07573 46.07028 18.98854 23.69648 20.18654 
553 54.05113 63.34378 61.44979 30.47060 33.67053 36.71716 
554 62.29609 79.89530 78.57629 48.72190 54.84803 62.11313 
555 18.77063 48.60342 43.60360 12.94564 16.14643 17.42499 
556 21.52896 57.06021 59.30326 19.75058 23.98011 31.97207 
557 47.85874 57.74729 81.78640 31.67514 32.07702 63.42867 
558 55.67393 61.57836 91.56673 39.60471 39.07869 80.70378 
559 26.98253 41.95382 70.95405 17.51672 17.39053 44.91215 
560 32.59222 49.37622 77.31167 23.17273 23.60820 55.31791 
561 90.25561 36.67293 10.40827 29.83624 22.99157 6.347542 
562 91.70106 44.56591 22.28626 34.04151 27.85583 9.851456 
563 76.51654 10.67351 1.355964 17.37561 11.31351 3.054870 
564 93.41196 20.52828 6.897115 28.37861 19.01137 5.422534 
565 92.92492 22.20008 25.26377 29.11253 19.90635 9.518432 
566 91.29595 29.43412 56.20847 33.92832 24.55888 30.52444 
567 91.96108 45.76786 56.62684 39.33736 32.09375 32.31247 
568 88.72733 45.41256 44.29897 34.60413 28.85825 21.42830 
569 86.99997 67.09450 45.08850 43.92215 43.63347 24.06948 
570 86.50774 77.96947 51.56746 52.25974 55.54166 31.04144 
571 25.00736 24.42977 99.43247 23.94941 18.28539 94.00701 
572 41.36940 44.75245 100.0000 32.26892 28.09674 96.26112 
573 0.612958 10.48505 22.15261 1.417707 1.419700 4.013651 
574 6.202279 36.57161 23.04358 5.672393 7.742152 5.308904 
575 13.83992 67.52337 24.95170 19.40471 28.17364 9.145107 
576 12.39046 77.23413 34.58244 26.56284 38.48061 15.11763 
577 56.42546 89.87814 51.91327 47.25324 60.37221 31.19213 
578 94.04828 70.60419 8.428909 46.68901 46.82827 9.844528 
579 95.94456 74.08372 20.99682 51.37404 52.11141 13.35345 
580 8.761801 22.75198 23.07784 3.016296 3.564168 4.645659 
581 24.05523 25.90678 32.90058 5.611192 5.747865 9.193915 
582 25.14951 52.02105 34.90560 13.83811 17.88146 12.21553 
583 24.82433 76.26937 59.02941 31.38936 41.39662 34.84858 
584 30.65748 87.77681 75.02633 45.53109 58.34497 58.27317 
585 43.37791 95.77142 78.40528 56.21488 71.53480 64.71930 
586 78.55570 47.14915 22.41516 26.93532 24.23830 8.753172 
587 85.35639 53.12321 51.93709 37.54690 33.39446 27.68789 
588 63.13916 26.87820 6.807886 13.77314 10.87936 3.092567 
589 71.17811 34.64697 21.17749 19.50472 16.07179 6.912876 
590 79.18721 37.84711 29.88886 25.23300 20.52878 11.26188 
591 65.87909 43.64767 20.96466 19.75584 18.60040 7.082613 
592 66.46422 51.48480 54.17146 27.67001 26.73254 28.47426 
593 71.33945 55.10684 65.12331 33.69565 32.10573 40.40713 
594 82.10159 55.37155 65.61811 39.51315 35.83437 42.13891 
595 93.15953 65.95878 91.76864 60.43682 54.42438 85.13547 
596 49.80570 24.56459 51.09857 13.29500 10.61769 22.47356 
597 64.58089 34.88605 51.60300 21.01307 17.47551 24.41988 
598 65.18468 44.82746 75.11499 30.16131 26.40932 53.65927 
599 67.45229 56.04860 74.82485 35.53657 33.84465 54.67823 
600 66.48803 66.98289 92.40030 47.32895 46.73006 84.05641 
601 29.84648 81.75379 83.13754 42.85013 52.31955 68.54588 
602 44.66206 88.34242 93.63428 55.10120 64.90378 88.62489 
603 64.63526 7.584269 48.46464 16.30922 10.79216 20.98220 
604 74.70159 13.58035 52.05316 21.58215 14.59931 24.65354 
605 78.81962 11.64561 63.86385 26.57876 17.80383 37.25220 
606 79.13906 35.14141 68.68417 31.66956 24.67574 43.91963 
607 87.47978 46.93317 77.51730 42.84652 35.07711 58.90635 
608 0.807974 86.44886 29.99956 32.10036 47.63633 14.29366 
609 31.21564 90.77279 47.06714 40.53033 56.34258 26.39849 
610 39.06990 90.52395 54.35532 43.53361 58.36726 33.41701 
611 61.94539 98.96225 76.94027 64.45906 79.44952 64.44820 
612 0.887132 15.71795 73.22916 11.04931 8.634092 46.63277 
613 28.64911 13.58841 88.73743 18.31127 13.45573 71.16153 
614 33.17286 23.55805 91.26295 21.51128 16.49563 77.29354 
615 42.87876 24.49518 99.30082 27.14309 20.15343 92.88389 
616 88.95122 48.29329 8.772813 32.46365 28.03325 6.768281 
617 99.09683 53.85112 9.913194 41.67298 35.91005 8.665710 
618 74.16622 93.02149 8.112971 52.58524 65.81850 12.08011 
619 82.59814 96.83030 28.17038 62.36108 75.84199 19.42542 
620 22.73505 60.37981 2.715693 15.18951 21.78698 3.711057 
621 40.68382 77.49223 8.568614 28.87134 39.99044 7.319090 
622 49.59126 81.11811 66.69282 41.54487 50.57380 45.25384 
623 24.57350 68.39890 72.17611 29.44979 35.29876 49.86683 
624 41.81188 69.45535 77.20814 34.77827 39.63040 57.90357 
625 49.93179 77.91472 86.13680 45.98994 52.13590 73.81138 
626 2.524919 48.04721 53.94338 13.62136 16.51993 26.15492 
627 11.29648 53.42180 54.91880 16.50257 20.12073 27.54395 
628 35.73390 83.76427 17.24243 32.40638 46.07528 9.742282 
629 57.78486 83.74364 21.11950 38.69898 50.13933 11.88652 
630 64.62826 91.61382 33.26751 48.92362 62.54167 18.96947 
631 71.96716 72.00753 14.13899 35.96317 41.13224 9.065330 
632 80.74004 75.05786 21.76934 42.93619 47.46898 12.26587 
633 94.02014 74.30675 40.88169 52.15290 52.76332 22.76776 
634 93.31967 78.05812 60.78708 58.15195 59.17473 41.03497 
635 71.40719 23.84873 58.58939 22.61303 16.49278 30.88870 
636 76.61104 24.05136 69.61177 27.95568 20.11840 44.51163 
637 40.96471 1.270562 68.75971 13.08808 8.959897 40.26167 
638 44.92211 11.49374 72.14349 15.75522 11.19939 45.54455 
639 61.71187 36.51556 80.07986 27.63307 22.60399 59.47034 
640 73.28655 51.23303 90.36734 41.45230 36.12533 78.15223 
641 75.76598 77.20771 89.83036 56.95072 58.80688 80.74933 
642 9.970740 35.53991 32.89061 6.688317 8.387817 9.580633 
643 9.844703 42.24049 45.89549 10.37934 12.45994 18.27586 
644 9.901656 52.27472 66.21070 18.55766 21.46576 39.26190 
645 52.84500 38.65044 6.207777 12.95938 12.90499 3.164823 
646 76.60059 39.71199 8.432365 22.89600 19.36562 4.988979 
647 90.09511 59.53981 9.620002 38.28955 36.13071 8.227358 
648 92.93484 80.82312 5.354826 53.03451 57.09239 10.98476 
649 51.87278 56.65187 12.95777 19.63291 23.01733 5.577050 
650 69.13602 59.71953 16.36337 27.40517 29.21437 7.680659 
651 74.17719 81.08242 57.26755 48.60701 54.87506 36.20035 
652 88.27989 95.29725 74.11889 72.92520 81.50423 61.88966 
653 22.68975 33.86002 53.68341 10.47278 10.62563 24.75647 
654 27.25611 51.70093 66.20313 20.07117 22.30543 39.81063 
655 42.80735 56.53949 70.45921 26.19455 28.06491 46.28342 
656 55.13942 60.86522 74.67155 33.14312 34.18229 53.69369 
657 82.86275 74.93581 2.893466 43.04623 47.28575 8.776064 
658 91.19161 79.81369 27.60364 52.69207 56.49496 16.16362 
659 100.0000 88.27885 57.33535 69.66102 73.30833 39.97605 
660 43.89448 9.715164 4.154340 5.543899 3.898800 1.459254 
661 55.82718 12.19924 7.571726 9.308050 6.412966 2.375353 
662 55.99639 14.46865 20.25530 10.09606 7.133192 4.899776 
663 68.97931 22.51743 26.76506 16.57202 12.01866 8.228429 
664 78.48857 56.97522 29.95183 31.71971 30.90548 12.78361 
665 78.77488 65.40682 35.98681 37.36235 38.67760 17.08652 
666 39.44929 65.21983 8.619193 20.59431 27.63916 5.439028 
667 50.55253 68.40622 8.898710 24.87178 31.72353 6.311245 
668 61.27487 77.02738 5.469844 34.38080 43.12574 7.779307 
669 74.30466 81.42655 8.368293 43.04125 51.41079 9.769679 
670 82.04780 88.74618 13.50524 53.32354 62.91276 12.46040 
671 39.19636 7.841149 84.83316 18.50047 12.96926 64.74722 
672 48.24573 8.808178 90.09174 22.51135 15.79110 73.93503 
673 89.22833 9.992179 91.06183 41.08298 27.52175 78.90791 
674 89.81081 4.271486 46.02741 28.50984 18.15829 20.59200 
675 90.05697 8.112736 62.44943 31.99961 21.01736 35.91006 
676 99.63435 10.78944 74.90771 42.36097 27.89594 54.72688 
677 39.20080 7.390040 46.38400 8.089122 5.674745 17.67699 
678 43.82415 8.687976 58.25556 11.58391 8.130510 28.76592 
679 54.96784 7.880628 60.10793 15.09006 10.27981 30.84205 
680 58.98103 7.901549 70.32555 19.18483 13.09365 43.58083 
681 73.86416 21.41273 4.795553 17.30535 12.29272 3.406509 
682 83.82979 28.38773 2.755929 24.18917 17.57210 4.335988 
683 96.90771 30.33423 16.06344 32.72286 23.42557 7.695224 
684 53.12987 1.523162 10.41804 7.727036 4.885680 2.481138 
685 54.78179 21.28031 41.08769 12.79366 9.623530 15.08087 
686 62.09195 29.99932 40.89704 16.63460 13.42341 15.43136 
687 29.43619 58.51957 11.52142 15.32001 21.09704 4.739101 
688 48.07915 68.49853 20.70041 25.15426 32.22132 8.769137 
689 74.41944 92.16236 21.72898 52.46783 65.10705 14.71147 
690 86.26166 100.0000 51.74804 70.63694 83.75925 36.35726 
691 60.51618 50.20597 8.482073 19.40876 20.60742 4.752884 
692 67.22730 54.41612 28.26138 25.27805 25.94130 11.01012 
693 70.61430 64.49498 47.22815 33.92425 35.97323 23.79424 
694 79.69016 70.68577 57.45870 44.57096 46.02297 35.18107 
695 44.70069 36.44477 58.27493 16.09662 14.75846 30.10813 
696 54.65671 39.64378 67.33075 22.18998 19.70009 41.00867 
697 5.172322 76.87447 43.47987 27.35490 38.83323 20.83658 
698 9.269301 88.36400 62.75497 39.74557 54.45516 40.53005 
699 8.868995 96.88094 71.52186 50.53297 68.99211 53.91618 
700 91.18804 33.66871 67.19774 37.59564 28.00521 42.70697 
701 94.36303 45.03849 86.12066 49.60737 38.91527 73.09593 
702 20.30452 28.12624 23.02869 4.794848 5.519961 5.007475 
703 25.60617 35.13823 31.32492 7.794073 8.958392 8.926815 
704 33.80921 36.52403 38.71914 10.14287 10.73042 13.28071 
705 37.13420 38.47038 76.76133 20.11482 18.35908 53.54117 
706 24.90800 4.438152 59.03793 8.064081 5.735175 28.98945 
707 42.32037 21.97758 72.97736 16.49263 12.66943 47.13776 
708 51.35691 23.88597 82.86586 22.42616 16.95526 62.52402 
709 79.85947 41.28908 90.87287 41.63895 32.96597 79.23454 
710 49.60409 11.31088 29.68480 8.607101 6.037993 8.183990 
711 59.62802 10.38433 38.38606 12.94761 8.726395 13.26198 
712 59.89522 25.90378 71.84623 22.09374 16.65826 46.06440 
713 73.85276 38.24989 78.86548 32.65780 26.44194 58.35094 
714 34.35609 8.796742 35.23112 5.641415 4.062077 10.26720 
715 34.36898 21.72394 35.25097 6.818226 5.897971 10.56681 
716 54.97059 72.96714 60.99179 36.71304 42.76341 37.69490 
717 63.95815 77.38807 67.99755 44.31249 50.45538 46.42616 
718 4.617174 10.55325 44.48927 4.072667 3.308063 15.81150 
719 6.518448 18.72461 52.91922 6.423764 5.578087 22.83627 
720 22.90439 5.797561 39.14110 4.208789 3.083675 12.15978 
721 48.11209 75.83821 37.78624 31.74900 40.96400 17.66233 
722 88.64797 85.19438 38.52120 56.05031 62.12955 22.57709 
723 95.66491 90.58138 45.84852 66.13307 72.37023 29.79813 
724 58.07337 31.34864 90.58312 29.16612 22.75927 76.73280 
725 57.22286 85.37793 94.71105 57.84634 64.88713 92.22366 
726 11.32000 23.67522 76.35225 13.48376 11.08225 51.64119 
727 12.60341 35.08139 76.75957 16.10904 14.91466 53.00881 
728 7.799509 91.86407 81.67044 48.27451 62.99778 67.21071 
729 10.39620 92.40601 91.90561 53.24858 67.11542 85.59711 
730 59.95354 94.85026 91.39106 65.09279 76.63396 86.70441 
731 6.837090 20.90955 35.79322 3.883075 3.951122 10.35400 
732 18.02205 30.90297 41.19680 7.150674 7.701814 14.25460 
733 24.83355 33.26168 79.30131 17.41112 15.55058 56.14442 
734 29.91596 50.08384 89.08342 27.21100 26.61558 74.00040 
735 38.23971 75.73036 90.90456 43.85844 49.73695 81.60710 
736 46.34089 97.39781 90.96146 63.10508 77.77584 85.89629 
737 4.481467 35.72897 4.163211 4.713077 6.956806 1.614609 
738 9.748631 40.20136 12.08459 6.490686 9.284536 2.959428 
739 15.70446 46.54546 23.60102 9.429781 12.96410 6.198233 
740 25.55751 61.98706 25.44693 17.19583 23.89450 8.698566 
741 37.78761 65.11189 25.11106 21.32938 28.19800 9.344840 
742 64.67431 69.68126 24.74923 31.65625 36.92315 11.07473 
743 38.29806 50.06196 60.70241 19.79430 21.39410 33.29235 
744 38.57555 59.45482 90.08629 33.25306 34.16580 76.80892 
745 0.00000 26.70198 79.13480 14.56189 12.21711 55.74210 
746 38.42455 28.85671 82.10268 19.84967 16.10971 60.58716 
747 45.38548 41.14364 90.71144 27.86567 24.21494 76.20056 
748 54.21340 49.37421 90.90106 33.41177 30.30839 78.16332 
749 55.84461 68.26679 43.80418 29.79876 35.13488 21.04526 
750 65.62449 75.26016 44.15119 38.68147 45.11309 23.18467 
751 72.36897 86.63767 48.45435 50.23809 59.71601 29.04241 
752 78.47843 91.84969 59.77173 59.78009 69.82420 40.60788 
753 89.85093 90.89282 60.34221 65.83591 72.84447 42.78631 
754 93.36024 91.41682 81.27629 74.95230 79.63424 71.60591 
755 39.01857 52.07687 36.03656 16.27125 19.53514 13.20917 
756 44.64860 54.04442 47.47377 20.19266 22.75130 21.56856 
757 20.90384 12.33143 66.16921 9.782229 7.402085 37.04635 
758 29.94473 21.32125 78.69663 15.77734 12.32688 55.34113 
759 0.00000 27.89226 58.15608 8.637364 8.319445 28.17936 
760 9.531745 39.70882 57.90396 11.92331 12.99555 28.93768 
761 10.12292 59.09421 75.04545 24.22622 27.85731 52.32639 
762 8.090167 79.06987 76.03272 36.75130 46.73079 56.84130 
763 9.849731 80.31665 93.53964 43.75713 52.16192 85.81055 
764 3.545129 74.37167 86.40222 36.86984 44.23148 72.13965 
765 23.82568 75.23484 88.78270 40.11840 47.08460 76.87641 
766 90.83679 91.70298 92.47563 77.52846 81.70572 90.27122 
767 25.36579 7.706539 8.549915 2.274723 1.752397 1.363005 
768 24.10956 17.90227 7.181087 2.838444 2.843817 1.329956 
769 26.33514 77.12876 6.739902 26.03071 37.94928 6.604504 
770 33.13083 82.89988 27.80937 32.26798 45.49469 13.09350 
771 51.39936 91.49903 41.01424 45.20119 60.21556 22.97381 
772 10.11642 56.65898 22.22757 13.14170 18.93034 6.803634 
773 8.358679 59.49254 43.28708 16.76877 22.65098 18.00802 
774 32.69995 59.06512 60.63838 22.59535 26.56964 34.21932 
775 43.74990 67.28098 66.26643 30.91141 35.91461 42.21060 
776 90.95622 67.65937 69.88798 52.09981 49.35830 49.66573 
777 92.99097 76.56808 78.16596 62.27275 61.59550 64.01515 
778 50.67777 44.84646 41.37615 17.07704 17.42557 16.53177 
779 68.69415 54.00499 41.84998 27.41856 27.16634 18.68653 
780 74.88411 84.99308 68.22728 55.22457 62.34480 49.59472 
781 78.22802 92.37606 77.16990 65.58188 74.52182 64.39111 
782 8.909358 8.156258 54.83216 6.059994 4.602983 24.64992 
783 9.164937 24.75660 65.67261 10.15827 8.937194 36.25363 
784 6.328266 66.54244 79.34876 29.50239 34.99458 59.57457 
785 7.006882 68.04862 93.55604 35.34886 39.58040 83.80900 
786 65.56816 7.178531 79.24701 24.56132 16.76624 56.65350 
787 70.22482 18.30837 88.16115 30.59220 21.62598 72.25213 
788 93.89283 24.18869 89.74901 44.75785 31.12731 76.96174 
789 78.91160 7.500626 76.57700 29.77868 19.90312 54.13321 
790 89.97034 5.849821 76.22105 35.74062 23.61449 54.50690 
791 89.12207 17.89710 79.85667 37.31554 25.58867 60.53253 
792 90.13131 34.83896 88.35380 44.43664 32.98298 74.75351 
793 7.708435 86.69173 48.03161 35.26685 50.14451 25.99110 
794 23.26678 89.43256 54.99191 40.16559 55.53655 33.02251 
795 25.38996 90.57861 65.34197 43.71554 58.66940 44.62812 
796 39.32192 91.96299 66.66322 48.03879 62.83924 47.18255 
797 23.55388 39.69371 45.76566 10.73479 12.03747 18.26866 
798 30.49970 49.89483 53.25891 16.53075 19.03234 25.49158 
799 91.82507 57.73508 62.16552 45.11063 40.19855 39.26479 
800 41.64020 5.314224 24.23769 5.805760 3.912468 5.339112 
801 48.48775 23.58317 31.76279 9.870900 7.994918 9.251561 
802 49.78483 34.11439 34.90908 12.92956 11.92710 11.54823 
803 56.61003 52.41899 50.55338 23.49057 24.40718 24.76601 
804 1.072892 24.41355 17.45498 2.618796 3.474230 3.145431 
805 5.344667 29.59053 42.48558 6.188734 6.775854 14.84762 
806 0.00000 64.59232 56.29988 21.66418 28.35952 29.83283 
807 2.731008 74.10670 64.32423 29.67141 38.87098 39.91066 
808 15.95511 82.27630 84.15135 42.37443 52.67064 70.50353 
809 74.11732 45.45482 67.07725 31.84408 27.59708 42.01940 
810 78.31501 60.96885 77.67962 44.13303 41.30672 59.79167 
811 77.77359 62.39678 91.68392 49.71920 45.83730 83.47052 
812 39.69398 48.64749 22.32875 13.54715 16.31441 6.638078 
813 47.83738 54.96007 26.96615 18.64892 21.89978 9.401266 
814 57.47533 60.67305 29.52962 24.64877 28.01211 11.60810 
815 100.0000 100.0000 100.0000 95.39035 100.2829 110.0826 
816 21.95305 28.37128 12.57361 4.338374 5.204376 2.447925 
817 21.57236 49.42367 13.42217 10.52865 14.61838 3.988805 
818 22.57077 63.34159 39.27706 19.49289 26.28956 15.82096 
819 36.37421 70.92249 41.58991 26.38237 34.79952 18.89836 
820 49.00194 88.95471 59.37225 45.76159 58.86100 37.88479 
821 57.12284 91.23471 67.22091 52.16269 64.80899 47.48620 
822 68.50094 89.58222 86.07374 61.31214 69.60291 76.35950 
823 77.75535 91.10377 92.70062 69.74705 76.33081 89.44858 
824 71.82842 10.81339 21.52232 16.01436 10.54435 6.150081 
825 79.01283 11.13852 30.17755 20.44561 13.38204 10.24330 
826 89.30891 24.69306 36.12776 28.47271 19.94716 14.49876 
827 47.07701 32.59641 12.58084 9.889058 9.562630 3.392610 
828 47.22887 35.90414 23.68695 11.41943 11.38189 6.285466 
829 35.51194 34.01656 8.922740 7.642115 8.476986 2.539783 
830 56.03318 45.10658 24.98196 17.07800 17.39017 7.954435 
831 59.14380 48.01124 35.60154 20.21874 20.36054 13.45469 
832 7.861661 2.563052 77.81491 11.85919 8.482968 52.59191 
833 10.43316 13.48746 81.51021 13.84200 10.45422 58.63250 
834 74.53660 18.51723 97.95306 36.71753 25.55327 91.74148 
835 15.14036 73.20494 48.06729 26.34849 36.23728 23.89546 
836 30.04333 78.99035 48.14483 31.73624 42.79688 25.20921 
END_DATA
CAL    

DESCRIPTOR "Argyll Device Calibration State"
ORIGINATOR "Argyll dispread"
CREATED "Wed Mar 16 21:11:39 2022"
DEVICE_CLASS "DISPLAY"
COLOR_REP "RGB"

NUMBER_OF_FIELDS 4
BEGIN_DATA_FORMAT
RGB_I RGB_R RGB_G RGB_B 
END_DATA_FORMAT

NUMBER_OF_SETS 256
BEGIN_DATA
0.00000 0.00000 0.00000 0.00000 
0.00392157 0.00198406 0.00247106 0.00221211 
0.00784314 0.00397473 0.00494794 0.00444557 
0.0117647 0.00597204 0.00743066 0.00670069 
0.0156863 0.00797603 0.00991926 0.00897779 
0.0196078 0.00998673 0.0124137 0.0112772 
0.0235294 0.0120042 0.0149141 0.0135992 
0.0274510 0.0140284 0.0174204 0.0159442 
0.0313725 0.0160594 0.0199327 0.0183125 
0.0352941 0.0180973 0.0224510 0.0207045 
0.0392157 0.0201420 0.0249752 0.0231205 
0.0431373 0.0221937 0.0275054 0.0255608 
0.0470588 0.0242523 0.0300417 0.0280259 
0.0509804 0.0263179 0.0325841 0.0305161 
0.0549020 0.0283905 0.0351336 0.0330320 
0.0588235 0.0304702 0.0376969 0.0355783 
0.0627451 0.0325615 0.0402836 0.0381651 
0.0666667 0.0346729 0.0429027 0.0408047 
0.0705882 0.0368121 0.0455642 0.0435113 
0.0745098 0.0389902 0.0482789 0.0462962 
0.0784314 0.0412140 0.0510591 0.0491706 
0.0823529 0.0434886 0.0539159 0.0521463 
0.0862745 0.0458230 0.0568617 0.0552351 
0.0901961 0.0482268 0.0599106 0.0584528 
0.0941176 0.0507122 0.0630740 0.0618117 
0.0980392 0.0532935 0.0663653 0.0653233 
0.101961 0.0559881 0.0697947 0.0689964 
0.105882 0.0588125 0.0733620 0.0728277 
0.109804 0.0617802 0.0770630 0.0768072 
0.113725 0.0648926 0.0808921 0.0809144 
0.117647 0.0681472 0.0848480 0.0851324 
0.121569 0.0715375 0.0889331 0.0894495 
0.125490 0.0750454 0.0931336 0.0938515 
0.129412 0.0786606 0.0974361 0.0983266 
0.133333 0.0823793 0.101828 0.102879 
0.137255 0.0862025 0.106312 0.107524 
0.141176 0.0901246 0.110891 0.112264 
0.145098 0.0941367 0.115551 0.117082 
0.149020 0.0982456 0.120284 0.122000 
0.152941 0.102452 0.125099 0.127023 
0.156863 0.106752 0.129985 0.132134 
0.160784 0.111157 0.134943 0.137324 
0.164706 0.115672 0.139975 0.142588 
0.168627 0.120264 0.145079 0.147905 
0.172549 0.124914 0.150237 0.153265 
0.176471 0.129598 0.155443 0.158673 
0.180392 0.134309 0.160689 0.164113 
0.184314 0.139023 0.165973 0.169571 
0.188235 0.143741 0.171282 0.174972 
0.192157 0.148472 0.176547 0.180322 
0.196078 0.153211 0.181758 0.185632 
0.200000 0.157967 0.186928 0.190915 
0.203922 0.162713 0.192081 0.196180 
0.207843 0.167483 0.197212 0.201422 
0.211765 0.172282 0.202323 0.206629 
0.215686 0.177130 0.207399 0.211764 
0.219608 0.182040 0.212407 0.216819 
0.223529 0.187019 0.217319 0.221797 
0.227451 0.192029 0.222146 0.226702 
0.231373 0.196995 0.226885 0.231518 
0.235294 0.201895 0.231544 0.236248 
0.239216 0.206709 0.236122 0.240890 
0.243137 0.211417 0.240625 0.245453 
0.247059 0.215998 0.245064 0.249982 
0.250980 0.220446 0.249446 0.254489 
0.254902 0.224768 0.253805 0.258943 
0.258824 0.228974 0.258148 0.263312 
0.262745 0.233108 0.262455 0.267595 
0.266667 0.237180 0.266700 0.271783 
0.270588 0.241195 0.270881 0.275884 
0.274510 0.245130 0.274993 0.279924 
0.278431 0.248982 0.279034 0.283909 
0.282353 0.252755 0.283027 0.287839 
0.286275 0.256460 0.286982 0.291726 
0.290196 0.260124 0.290890 0.295564 
0.294118 0.263747 0.294762 0.299360 
0.298039 0.267326 0.298597 0.303121 
0.301961 0.270883 0.302392 0.306857 
0.305882 0.274416 0.306157 0.310570 
0.309804 0.277926 0.309891 0.314259 
0.313725 0.281415 0.313603 0.317923 
0.317647 0.284888 0.317293 0.321560 
0.321569 0.288357 0.320963 0.325207 
0.325490 0.291814 0.324614 0.328875 
0.329412 0.295254 0.328249 0.332551 
0.333333 0.298676 0.331901 0.336237 
0.337255 0.302104 0.335566 0.339930 
0.341176 0.305553 0.339237 0.343630 
0.345098 0.309010 0.342913 0.347340 
0.349020 0.312474 0.346591 0.351056 
0.352941 0.315932 0.350267 0.354777 
0.356863 0.319385 0.353944 0.358510 
0.360784 0.322837 0.357612 0.362261 
0.364706 0.326274 0.361273 0.366027 
0.368627 0.329693 0.364926 0.369799 
0.372549 0.333100 0.368578 0.373567 
0.376471 0.336501 0.372226 0.377326 
0.380392 0.339911 0.375864 0.381058 
0.384314 0.343317 0.379482 0.384778 
0.388235 0.346701 0.383071 0.388515 
0.392157 0.350056 0.386623 0.392271 
0.396078 0.353362 0.390151 0.396008 
0.400000 0.356622 0.393684 0.399726 
0.403922 0.359855 0.397242 0.403438 
0.407843 0.363093 0.400804 0.407149 
0.411765 0.366327 0.404355 0.410845 
0.415686 0.369536 0.407903 0.414523 
0.419608 0.372724 0.411462 0.418187 
0.423529 0.375905 0.415032 0.421840 
0.427451 0.379086 0.418613 0.425477 
0.431373 0.382261 0.422202 0.429091 
0.435294 0.385423 0.425802 0.432691 
0.439216 0.388576 0.429416 0.436282 
0.443137 0.391724 0.433031 0.439863 
0.447059 0.394862 0.436642 0.443450 
0.450980 0.397993 0.440260 0.447037 
0.454902 0.401128 0.443886 0.450625 
0.458824 0.404279 0.447516 0.454221 
0.462745 0.407432 0.451165 0.457827 
0.466667 0.410590 0.454826 0.461444 
0.470588 0.413765 0.458501 0.465069 
0.474510 0.416955 0.462185 0.468703 
0.478431 0.420167 0.465883 0.472342 
0.482353 0.423400 0.469594 0.475983 
0.486275 0.426655 0.473319 0.479623 
0.490196 0.429920 0.477053 0.483263 
0.494118 0.433191 0.480801 0.486922 
0.498039 0.436466 0.484563 0.490627 
0.501961 0.439736 0.488338 0.494360 
0.505882 0.442993 0.492126 0.498119 
0.509804 0.446236 0.495954 0.501904 
0.513725 0.449477 0.499826 0.505717 
0.517647 0.452732 0.503708 0.509562 
0.521569 0.456013 0.507599 0.513445 
0.525490 0.459316 0.511498 0.517365 
0.529412 0.462633 0.515407 0.521325 
0.533333 0.465963 0.519325 0.525316 
0.537255 0.469307 0.523251 0.529326 
0.541176 0.472668 0.527185 0.533353 
0.545098 0.476058 0.531128 0.537396 
0.549020 0.479484 0.535075 0.541459 
0.552941 0.482946 0.539023 0.545529 
0.556863 0.486452 0.542977 0.549582 
0.560784 0.489990 0.546934 0.553610 
0.564706 0.493541 0.550902 0.557630 
0.568627 0.497103 0.554864 0.561653 
0.572549 0.500670 0.558801 0.565679 
0.576471 0.504244 0.562718 0.569720 
0.580392 0.507816 0.566636 0.573774 
0.584314 0.511374 0.570561 0.577842 
0.588235 0.514914 0.574490 0.581925 
0.592157 0.518459 0.578439 0.586018 
0.596078 0.522018 0.582415 0.590117 
0.600000 0.525584 0.586426 0.594215 
0.603922 0.529182 0.590470 0.598293 
0.607843 0.532820 0.594542 0.602360 
0.611765 0.536501 0.598639 0.606421 
0.615686 0.540212 0.602745 0.610473 
0.619608 0.543950 0.606838 0.614504 
0.623529 0.547715 0.610922 0.618506 
0.627451 0.551475 0.614995 0.622485 
0.631373 0.555215 0.619063 0.626431 
0.635294 0.558947 0.623120 0.630323 
0.639216 0.562677 0.627154 0.634156 
0.643137 0.566410 0.631168 0.637941 
0.647059 0.570129 0.635154 0.641700 
0.650980 0.573809 0.639098 0.645447 
0.654902 0.577449 0.642990 0.649182 
0.658824 0.581058 0.646837 0.652900 
0.662745 0.584624 0.650662 0.656622 
0.666667 0.588133 0.654490 0.660356 
0.670588 0.591602 0.658323 0.664103 
0.674510 0.595050 0.662162 0.667883 
0.678431 0.598503 0.666003 0.671713 
0.682353 0.601968 0.669842 0.675596 
0.686275 0.605448 0.673680 0.679511 
0.690196 0.608938 0.677525 0.683440 
0.694118 0.612421 0.681399 0.687382 
0.698039 0.615898 0.685317 0.691350 
0.701961 0.619377 0.689277 0.695353 
0.705882 0.622881 0.693267 0.699394 
0.709804 0.626433 0.697273 0.703461 
0.713725 0.630034 0.701299 0.707545 
0.717647 0.633656 0.705351 0.711657 
0.721569 0.637288 0.709434 0.715803 
0.725490 0.640932 0.713542 0.719989 
0.729412 0.644582 0.717665 0.724211 
0.733333 0.648236 0.721816 0.728464 
0.737255 0.651897 0.726003 0.732706 
0.741176 0.655551 0.730235 0.736960 
0.745098 0.659192 0.734513 0.741231 
0.749020 0.662835 0.738836 0.745520 
0.752941 0.666479 0.743197 0.749830 
0.756863 0.670125 0.747579 0.754174 
0.760784 0.673757 0.751996 0.758562 
0.764706 0.677367 0.756447 0.762980 
0.768627 0.680953 0.760920 0.767411 
0.772549 0.684528 0.765420 0.771836 
0.776471 0.688087 0.769944 0.776271 
0.780392 0.691621 0.774487 0.780757 
0.784314 0.695129 0.779020 0.785264 
0.788235 0.698627 0.783520 0.789763 
0.792157 0.702128 0.787989 0.794274 
0.796078 0.705636 0.792457 0.798799 
0.800000 0.709149 0.796938 0.803319 
0.803922 0.712658 0.801396 0.807831 
0.807843 0.716158 0.805842 0.812337 
0.811765 0.719648 0.810307 0.816811 
0.815686 0.723155 0.814781 0.821212 
0.819608 0.726724 0.819252 0.825554 
0.823529 0.730338 0.823725 0.829820 
0.827451 0.733982 0.828203 0.834012 
0.831373 0.737673 0.832647 0.838145 
0.835294 0.741440 0.837032 0.842225 
0.839216 0.745283 0.841353 0.846267 
0.843137 0.749205 0.845604 0.850277 
0.847059 0.753193 0.849808 0.854244 
0.850980 0.757227 0.853967 0.858159 
0.854902 0.761285 0.858087 0.862001 
0.858824 0.765377 0.862185 0.865770 
0.862745 0.769501 0.866258 0.869472 
0.866667 0.773621 0.870294 0.873110 
0.870588 0.777749 0.874277 0.876692 
0.874510 0.781896 0.878198 0.880216 
0.878431 0.786056 0.882070 0.883687 
0.882353 0.790242 0.885889 0.887112 
0.886275 0.794439 0.889662 0.890490 
0.890196 0.798622 0.893394 0.893826 
0.894118 0.802756 0.897086 0.897120 
0.898039 0.806863 0.900742 0.900373 
0.901961 0.810945 0.904373 0.903594 
0.905882 0.814994 0.907978 0.906788 
0.909804 0.819022 0.911568 0.909954 
0.913725 0.823027 0.915149 0.913092 
0.917647 0.827021 0.918724 0.916197 
0.921569 0.830996 0.922291 0.919269 
0.925490 0.834953 0.925851 0.922308 
0.929412 0.838897 0.929400 0.925319 
0.933333 0.842838 0.932938 0.928304 
0.937255 0.846778 0.936466 0.931265 
0.941176 0.850711 0.939989 0.934202 
0.945098 0.854632 0.943509 0.937117 
0.949020 0.858535 0.947029 0.940007 
0.952941 0.862421 0.950544 0.942871 
0.956863 0.866287 0.954048 0.945710 
0.960784 0.870128 0.957541 0.948525 
0.964706 0.873944 0.961022 0.951317 
0.968627 0.877738 0.964492 0.954086 
0.972549 0.881517 0.967950 0.956833 
0.976471 0.885288 0.971398 0.959557 
0.980392 0.889051 0.974835 0.962259 
0.984314 0.892805 0.978261 0.964939 
0.988235 0.896552 0.981677 0.967597 
0.992157 0.900290 0.985082 0.970235 
0.996078 0.904021 0.988476 0.972851 
1.000000 0.907743 0.991860 0.975446 
END_DATA
